wavelength, nm;	absorption
368.00;	0.4837
368.28;	0.4908
368.57;	0.4980
368.85;	0.5052
369.14;	0.5126
369.42;	0.5199
369.71;	0.5274
369.99;	0.5350
370.27;	0.5426
370.56;	0.5503
370.84;	0.5581
371.13;	0.5659
371.41;	0.5739
371.70;	0.5819
371.98;	0.5900
372.26;	0.5981
372.55;	0.6064
372.83;	0.6147
373.12;	0.6231
373.40;	0.6316
373.69;	0.6402
373.97;	0.6488
374.25;	0.6576
374.54;	0.6664
374.82;	0.6753
375.11;	0.6842
375.39;	0.6933
375.68;	0.7024
375.96;	0.7116
376.24;	0.7209
376.53;	0.7303
376.81;	0.7398
377.10;	0.7493
377.38;	0.7589
377.67;	0.7686
377.95;	0.7784
378.24;	0.7882
378.52;	0.7982
378.80;	0.8082
379.09;	0.8183
379.37;	0.8285
379.66;	0.8387
379.94;	0.8491
380.23;	0.8595
380.51;	0.8700
380.79;	0.8805
381.08;	0.8912
381.36;	0.9019
381.65;	0.9127
381.93;	0.9236
382.22;	0.9346
382.50;	0.9456
382.78;	0.9567
383.07;	0.9679
383.35;	0.9792
383.64;	0.9905
383.92;	1.0020
384.21;	1.0134
384.49;	1.0250
384.77;	1.0367
385.06;	1.0484
385.34;	1.0602
385.63;	1.0720
385.91;	1.0840
386.20;	1.0960
386.48;	1.1080
386.76;	1.1202
387.05;	1.1324
387.33;	1.1447
387.62;	1.1571
387.90;	1.1695
388.19;	1.1820
388.47;	1.1945
388.75;	1.2071
389.04;	1.2198
389.32;	1.2326
389.61;	1.2454
389.89;	1.2583
390.18;	1.2712
390.46;	1.2842
390.74;	1.2973
391.03;	1.3104
391.31;	1.3236
391.60;	1.3368
391.88;	1.3501
392.17;	1.3635
392.45;	1.3769
392.73;	1.3903
393.02;	1.4038
393.30;	1.4174
393.59;	1.4310
393.87;	1.4447
394.16;	1.4584
394.44;	1.4722
394.72;	1.4860
395.01;	1.4998
395.29;	1.5137
395.58;	1.5277
395.86;	1.5417
396.15;	1.5557
396.43;	1.5697
396.72;	1.5838
397.00;	1.5980
397.28;	1.6122
397.57;	1.6264
397.85;	1.6406
398.14;	1.6549
398.42;	1.6692
398.71;	1.6835
398.99;	1.6979
399.27;	1.7123
399.56;	1.7267
399.84;	1.7412
400.13;	1.7556
400.41;	1.7701
400.70;	1.7846
400.98;	1.7991
401.26;	1.8137
401.55;	1.8282
401.83;	1.8428
402.12;	1.8574
402.40;	1.8720
402.69;	1.8866
402.97;	1.9012
403.25;	1.9158
403.54;	1.9304
403.82;	1.9450
404.11;	1.9596
404.39;	1.9743
404.68;	1.9889
404.96;	2.0035
405.24;	2.0181
405.53;	2.0327
405.81;	2.0473
406.10;	2.0619
406.38;	2.0764
406.67;	2.0910
406.95;	2.1055
407.23;	2.1201
407.52;	2.1346
407.80;	2.1490
408.09;	2.1635
408.37;	2.1779
408.66;	2.1923
408.94;	2.2067
409.22;	2.2211
409.51;	2.2354
409.79;	2.2497
410.08;	2.2639
410.36;	2.2781
410.65;	2.2923
410.93;	2.3064
411.21;	2.3205
411.50;	2.3346
411.78;	2.3486
412.07;	2.3625
412.35;	2.3764
412.64;	2.3903
412.92;	2.4040
413.20;	2.4178
413.49;	2.4315
413.77;	2.4451
414.06;	2.4586
414.34;	2.4721
414.63;	2.4856
414.91;	2.4989
415.20;	2.5122
415.48;	2.5254
415.76;	2.5386
416.05;	2.5517
416.33;	2.5647
416.62;	2.5776
416.90;	2.5904
417.19;	2.6032
417.47;	2.6159
417.75;	2.6285
418.04;	2.6410
418.32;	2.6534
418.61;	2.6657
418.89;	2.6779
419.18;	2.6901
419.46;	2.7021
419.74;	2.7141
420.03;	2.7259
420.31;	2.7377
420.60;	2.7493
420.88;	2.7608
421.17;	2.7723
421.45;	2.7836
421.73;	2.7948
422.02;	2.8059
422.30;	2.8169
422.59;	2.8277
422.87;	2.8385
423.16;	2.8491
423.44;	2.8596
423.72;	2.8700
424.01;	2.8803
424.29;	2.8904
424.58;	2.9004
424.86;	2.9103
425.15;	2.9201
425.43;	2.9297
425.71;	2.9392
426.00;	2.9486
426.28;	2.9578
426.57;	2.9669
426.85;	2.9758
427.14;	2.9846
427.42;	2.9933
427.70;	3.0018
427.99;	3.0102
428.27;	3.0184
428.56;	3.0265
428.84;	3.0344
429.13;	3.0422
429.41;	3.0499
429.69;	3.0574
429.98;	3.0647
430.26;	3.0719
430.55;	3.0789
430.83;	3.0858
431.12;	3.0925
431.40;	3.0990
431.68;	3.1054
431.97;	3.1116
432.25;	3.1177
432.54;	3.1236
432.82;	3.1294
433.11;	3.1349
433.39;	3.1403
433.68;	3.1456
433.96;	3.1507
434.24;	3.1556
434.53;	3.1603
434.81;	3.1649
435.10;	3.1693
435.38;	3.1735
435.67;	3.1775
435.95;	3.1814
436.23;	3.1851
436.52;	3.1887
436.80;	3.1920
437.09;	3.1952
437.37;	3.1982
437.66;	3.2010
437.94;	3.2037
438.22;	3.2062
438.51;	3.2085
438.79;	3.2106
439.08;	3.2125
439.36;	3.2143
439.65;	3.2159
439.93;	3.2173
440.21;	3.2185
440.50;	3.2196
440.78;	3.2204
441.07;	3.2211
441.35;	3.2216
441.64;	3.2219
441.92;	3.2221
442.20;	3.2221
442.49;	3.2218
442.77;	3.2214
443.06;	3.2209
443.34;	3.2201
443.63;	3.2192
443.91;	3.2181
444.19;	3.2168
444.48;	3.2153
444.76;	3.2136
445.05;	3.2118
445.33;	3.2098
445.62;	3.2076
445.90;	3.2052
446.18;	3.2027
446.47;	3.2000
446.75;	3.1971
447.04;	3.1940
447.32;	3.1908
447.61;	3.1873
447.89;	3.1837
448.17;	3.1800
448.46;	3.1760
448.74;	3.1719
449.03;	3.1676
449.31;	3.1632
449.60;	3.1585
449.88;	3.1537
450.16;	3.1488
450.45;	3.1436
450.73;	3.1383
451.02;	3.1328
451.30;	3.1272
451.59;	3.1214
451.87;	3.1154
452.16;	3.1093
452.44;	3.1030
452.72;	3.0966
453.01;	3.0900
453.29;	3.0832
453.58;	3.0763
453.86;	3.0692
454.15;	3.0620
454.43;	3.0546
454.71;	3.0470
455.00;	3.0394
455.28;	3.0315
455.57;	3.0235
455.85;	3.0154
456.14;	3.0071
456.42;	2.9987
456.70;	2.9901
456.99;	2.9814
457.27;	2.9725
457.56;	2.9635
457.84;	2.9544
458.13;	2.9451
458.41;	2.9357
458.69;	2.9262
458.98;	2.9165
459.26;	2.9067
459.55;	2.8968
459.83;	2.8867
460.12;	2.8765
460.40;	2.8662
460.68;	2.8558
460.97;	2.8453
461.25;	2.8346
461.54;	2.8238
461.82;	2.8129
462.11;	2.8019
462.39;	2.7907
462.67;	2.7795
462.96;	2.7682
463.24;	2.7567
463.53;	2.7451
463.81;	2.7335
464.10;	2.7217
464.38;	2.7098
464.66;	2.6979
464.95;	2.6858
465.23;	2.6736
465.52;	2.6614
465.80;	2.6490
466.09;	2.6366
466.37;	2.6241
466.65;	2.6114
466.94;	2.5987
467.22;	2.5860
467.51;	2.5731
467.79;	2.5602
468.08;	2.5471
468.36;	2.5341
468.64;	2.5209
468.93;	2.5077
469.21;	2.4944
469.50;	2.4810
469.78;	2.4675
470.07;	2.4540
470.35;	2.4405
470.64;	2.4268
470.92;	2.4132
471.20;	2.3994
471.49;	2.3856
471.77;	2.3718
472.06;	2.3579
472.34;	2.3439
472.63;	2.3299
472.91;	2.3159
473.19;	2.3018
473.48;	2.2877
473.76;	2.2735
474.05;	2.2593
474.33;	2.2451
474.62;	2.2308
474.90;	2.2165
475.18;	2.2021
475.47;	2.1878
475.75;	2.1734
476.04;	2.1590
476.32;	2.1445
476.61;	2.1301
476.89;	2.1156
477.17;	2.1011
477.46;	2.0865
477.74;	2.0720
478.03;	2.0575
478.31;	2.0429
478.60;	2.0283
478.88;	2.0138
479.16;	1.9992
479.45;	1.9846
479.73;	1.9700
480.02;	1.9554
480.30;	1.9408
480.59;	1.9262
480.87;	1.9116
481.15;	1.8971
481.44;	1.8825
481.72;	1.8679
482.01;	1.8534
482.29;	1.8388
482.58;	1.8243
482.86;	1.8098
483.14;	1.7953
483.43;	1.7808
483.71;	1.7663
484.00;	1.7519
484.28;	1.7375
484.57;	1.7231
484.85;	1.7087
485.13;	1.6943
485.42;	1.6800
485.70;	1.6657
485.99;	1.6515
486.27;	1.6373
486.56;	1.6231
486.84;	1.6089
487.12;	1.5948
487.41;	1.5807
487.69;	1.5666
487.98;	1.5526
488.26;	1.5387
488.55;	1.5247
488.83;	1.5108
489.12;	1.4970
489.40;	1.4832
489.68;	1.4695
489.97;	1.4558
490.25;	1.4421
490.54;	1.4285
490.82;	1.4150
491.11;	1.4015
491.39;	1.3880
491.67;	1.3746
491.96;	1.3613
492.24;	1.3480
492.53;	1.3348
492.81;	1.3216
493.10;	1.3085
493.38;	1.2955
493.66;	1.2825
493.95;	1.2695
494.23;	1.2567
494.52;	1.2439
494.80;	1.2311
495.09;	1.2185
495.37;	1.2059
495.65;	1.1933
495.94;	1.1808
496.22;	1.1684
496.51;	1.1561
496.79;	1.1438
497.08;	1.1316
497.36;	1.1195
497.64;	1.1074
497.93;	1.0954
498.21;	1.0835
498.50;	1.0717
498.78;	1.0599
499.07;	1.0482
499.35;	1.0365
499.63;	1.0250
499.92;	1.0135
500.20;	1.0021
500.49;	0.9908
500.77;	0.9795
501.06;	0.9684
501.34;	0.9573
501.62;	0.9462
501.91;	0.9353
502.19;	0.9244
502.48;	0.9136
502.76;	0.9029
503.05;	0.8923
503.33;	0.8818
503.61;	0.8713
503.90;	0.8609
504.18;	0.8506
504.47;	0.8404
504.75;	0.8302
505.04;	0.8201
505.32;	0.8101
505.60;	0.8002
505.89;	0.7904
506.17;	0.7807
506.46;	0.7710
506.74;	0.7614
507.03;	0.7519
507.31;	0.7425
507.60;	0.7331
507.88;	0.7239
508.16;	0.7147
508.45;	0.7056
508.73;	0.6966
509.02;	0.6876
509.30;	0.6788
509.59;	0.6700
509.87;	0.6613
510.15;	0.6527
510.44;	0.6442
510.72;	0.6357
511.01;	0.6273
511.29;	0.6190
511.58;	0.6108
511.86;	0.6027
512.14;	0.5946
512.43;	0.5867
512.71;	0.5788
513.00;	0.5710
513.28;	0.5632
513.57;	0.5556
513.85;	0.5480
514.13;	0.5405
514.42;	0.5331
514.70;	0.5258
514.99;	0.5185
515.27;	0.5113
515.56;	0.5042
515.84;	0.4972
516.12;	0.4902
516.41;	0.4833
516.69;	0.4765
516.98;	0.4698
517.26;	0.4632
517.55;	0.4566
517.83;	0.4501
518.11;	0.4437
518.40;	0.4373
518.68;	0.4310
518.97;	0.4248
519.25;	0.4187
519.54;	0.4126
519.82;	0.4066
520.10;	0.4007
520.39;	0.3949
520.67;	0.3891
520.96;	0.3834
521.24;	0.3778
521.53;	0.3722
521.81;	0.3667
522.09;	0.3613
522.38;	0.3559
522.66;	0.3506
522.95;	0.3454
523.23;	0.3403
523.52;	0.3352
523.80;	0.3302
524.08;	0.3252
524.37;	0.3203
524.65;	0.3155
524.94;	0.3107
525.22;	0.3060
525.51;	0.3014
525.79;	0.2968
526.08;	0.2923
526.36;	0.2879
526.64;	0.2835
526.93;	0.2791
527.21;	0.2749
527.50;	0.2707
527.78;	0.2665
528.07;	0.2624
528.35;	0.2584
528.63;	0.2544
528.92;	0.2505
529.20;	0.2467
529.49;	0.2429
529.77;	0.2391
530.06;	0.2354
530.34;	0.2318
530.62;	0.2282
530.91;	0.2247
531.19;	0.2212
531.48;	0.2178
531.76;	0.2144
532.05;	0.2111
532.33;	0.2078
532.61;	0.2046
532.90;	0.2015
533.18;	0.1983
533.47;	0.1953
533.75;	0.1923
534.04;	0.1893
534.32;	0.1864
534.60;	0.1835
534.89;	0.1807
535.17;	0.1779
535.46;	0.1752
535.74;	0.1725
536.03;	0.1699
536.31;	0.1673
536.59;	0.1647
536.88;	0.1622
537.16;	0.1597
537.45;	0.1573
537.73;	0.1549
538.02;	0.1526
538.30;	0.1503
538.58;	0.1480
538.87;	0.1458
539.15;	0.1436
539.44;	0.1415
539.72;	0.1394
540.01;	0.1373
540.29;	0.1353
540.57;	0.1333
540.86;	0.1314
541.14;	0.1295
541.43;	0.1276
541.71;	0.1257
542.00;	0.1239
542.28;	0.1222
542.56;	0.1204
542.85;	0.1187
543.13;	0.1171
543.42;	0.1154
543.70;	0.1138
543.99;	0.1123
544.27;	0.1107
544.56;	0.1092
544.84;	0.1077
545.12;	0.1063
545.41;	0.1049
545.69;	0.1035
545.98;	0.1021
546.26;	0.1008
546.55;	0.0995
546.83;	0.0983
547.11;	0.0970
547.40;	0.0958
547.68;	0.0946
547.97;	0.0935
548.25;	0.0923
548.54;	0.0912
548.82;	0.0901
549.10;	0.0891
549.39;	0.0881
549.67;	0.0871
549.96;	0.0861
550.24;	0.0851
550.53;	0.0842
550.81;	0.0833
551.09;	0.0824
551.38;	0.0815
551.66;	0.0807
551.95;	0.0799
552.23;	0.0791
552.52;	0.0783
552.80;	0.0775
553.08;	0.0768
553.37;	0.0761
553.65;	0.0754
553.94;	0.0747
554.22;	0.0741
554.51;	0.0734
554.79;	0.0728
555.07;	0.0722
555.36;	0.0716
555.64;	0.0711
555.93;	0.0705
556.21;	0.0700
556.50;	0.0695
556.78;	0.0690
557.06;	0.0685
557.35;	0.0681
557.63;	0.0676
557.92;	0.0672
558.20;	0.0668
558.49;	0.0664
558.77;	0.0660
559.05;	0.0657
559.34;	0.0653
559.62;	0.0650
559.91;	0.0647
560.19;	0.0644
560.48;	0.0641
560.76;	0.0638
561.04;	0.0635
561.33;	0.0633
561.61;	0.0630
561.90;	0.0628
562.18;	0.0626
562.47;	0.0624
562.75;	0.0622
563.04;	0.0620
563.32;	0.0619
563.60;	0.0617
563.89;	0.0616
564.17;	0.0615
564.46;	0.0614
564.74;	0.0612
565.03;	0.0612
565.31;	0.0611
565.59;	0.0610
565.88;	0.0609
566.16;	0.0609
566.45;	0.0608
566.73;	0.0608
567.02;	0.0608
567.30;	0.0608
567.58;	0.0608
567.87;	0.0608
568.15;	0.0608
568.44;	0.0608
568.72;	0.0608
569.01;	0.0609
569.29;	0.0609
569.57;	0.0610
569.86;	0.0610
570.14;	0.0611
570.43;	0.0612
570.71;	0.0613
571.00;	0.0614
571.28;	0.0615
571.56;	0.0616
571.85;	0.0617
572.13;	0.0618
572.42;	0.0620
572.70;	0.0621
572.99;	0.0622
573.27;	0.0624
573.55;	0.0626
573.84;	0.0627
574.12;	0.0629
574.41;	0.0631
574.69;	0.0633
574.98;	0.0635
575.26;	0.0636
575.54;	0.0638
575.83;	0.0641
576.11;	0.0643
576.40;	0.0645
576.68;	0.0647
576.97;	0.0649
577.25;	0.0652
577.53;	0.0654
577.82;	0.0657
578.10;	0.0659
578.39;	0.0662
578.67;	0.0664
578.96;	0.0667
579.24;	0.0670
579.52;	0.0673
579.81;	0.0675
580.09;	0.0678
580.38;	0.0681
580.66;	0.0684
580.95;	0.0687
581.23;	0.0690
581.52;	0.0693
581.80;	0.0696
582.08;	0.0699
582.37;	0.0702
582.65;	0.0706
582.94;	0.0709
583.22;	0.0712
583.51;	0.0716
583.79;	0.0719
584.07;	0.0722
584.36;	0.0726
584.64;	0.0729
584.93;	0.0733
585.21;	0.0736
585.50;	0.0740
585.78;	0.0743
586.06;	0.0747
586.35;	0.0751
586.63;	0.0754
586.92;	0.0758
587.20;	0.0762
587.49;	0.0766
587.77;	0.0770
588.05;	0.0773
588.34;	0.0777
588.62;	0.0781
588.91;	0.0785
589.19;	0.0789
589.48;	0.0793
589.76;	0.0797
590.04;	0.0801
590.33;	0.0805
590.61;	0.0809
590.90;	0.0813
591.18;	0.0817
591.47;	0.0822
591.75;	0.0826
592.03;	0.0830
592.32;	0.0834
592.60;	0.0838
592.89;	0.0843
593.17;	0.0847
593.46;	0.0851
593.74;	0.0856
594.02;	0.0860
594.31;	0.0864
594.59;	0.0869
594.88;	0.0873
595.16;	0.0878
595.45;	0.0882
595.73;	0.0886
596.01;	0.0891
596.30;	0.0895
596.58;	0.0900
596.87;	0.0904
597.15;	0.0909
597.44;	0.0914
597.72;	0.0918
598.00;	0.0923
598.29;	0.0927
598.57;	0.0932
598.86;	0.0937
599.14;	0.0941
599.43;	0.0946
599.71;	0.0951
600.00;	0.0955
600.28;	0.0960
600.56;	0.0965
600.85;	0.0969
601.13;	0.0974
601.42;	0.0979
601.70;	0.0984
601.99;	0.0988
602.27;	0.0993
602.55;	0.0998
602.84;	0.1003
603.12;	0.1008
603.41;	0.1012
603.69;	0.1017
603.98;	0.1022
604.26;	0.1027
604.54;	0.1032
604.83;	0.1037
605.11;	0.1042
605.40;	0.1047
605.68;	0.1051
605.97;	0.1056
606.25;	0.1061
606.53;	0.1066
606.82;	0.1071
607.10;	0.1076
607.39;	0.1081
607.67;	0.1086
607.96;	0.1091
608.24;	0.1096
608.52;	0.1101
608.81;	0.1106
609.09;	0.1111
609.38;	0.1116
609.66;	0.1121
609.95;	0.1126
610.23;	0.1131
610.51;	0.1136
610.80;	0.1141
611.08;	0.1146
611.37;	0.1151
611.65;	0.1156
611.94;	0.1161
612.22;	0.1166
612.50;	0.1171
612.79;	0.1176
613.07;	0.1181
613.36;	0.1186
613.64;	0.1191
613.93;	0.1196
614.21;	0.1201
614.49;	0.1206
614.78;	0.1211
615.06;	0.1216
615.35;	0.1221
615.63;	0.1226
615.92;	0.1231
616.20;	0.1236
616.48;	0.1241
616.77;	0.1246
617.05;	0.1251
617.34;	0.1257
617.62;	0.1262
617.91;	0.1267
618.19;	0.1272
618.48;	0.1277
618.76;	0.1282
619.04;	0.1287
619.33;	0.1292
619.61;	0.1297
619.90;	0.1302
620.18;	0.1307
620.47;	0.1312
620.75;	0.1317
621.03;	0.1322
621.32;	0.1327
621.60;	0.1332
621.89;	0.1337
622.17;	0.1342
622.46;	0.1347
622.74;	0.1352
623.02;	0.1357
623.31;	0.1362
623.59;	0.1367
623.88;	0.1372
624.16;	0.1377
624.45;	0.1381
624.73;	0.1386
625.01;	0.1391
625.30;	0.1396
625.58;	0.1401
625.87;	0.1406
626.15;	0.1411
626.44;	0.1416
626.72;	0.1421
627.00;	0.1426
627.29;	0.1430
627.57;	0.1435
627.86;	0.1440
628.14;	0.1445
628.43;	0.1450
628.71;	0.1455
628.99;	0.1459
629.28;	0.1464
629.56;	0.1469
629.85;	0.1474
630.13;	0.1479
630.42;	0.1483
630.70;	0.1488
630.98;	0.1493
631.27;	0.1497
631.55;	0.1502
631.84;	0.1507
632.12;	0.1512
632.41;	0.1516
632.69;	0.1521
632.97;	0.1525
633.26;	0.1530
633.54;	0.1535
633.83;	0.1539
634.11;	0.1544
634.40;	0.1549
634.68;	0.1553
634.96;	0.1558
635.25;	0.1562
635.53;	0.1567
635.82;	0.1571
636.10;	0.1576
636.39;	0.1580
636.67;	0.1585
636.96;	0.1589
637.24;	0.1593
637.52;	0.1598
637.81;	0.1602
638.09;	0.1607
638.38;	0.1611
638.66;	0.1615
638.95;	0.1620
639.23;	0.1624
639.51;	0.1628
639.80;	0.1632
640.08;	0.1637
640.37;	0.1641
640.65;	0.1645
640.94;	0.1649
641.22;	0.1654
641.50;	0.1658
641.79;	0.1662
642.07;	0.1666
642.36;	0.1670
642.64;	0.1674
642.93;	0.1678
643.21;	0.1682
643.49;	0.1686
643.78;	0.1690
644.06;	0.1694
644.35;	0.1698
644.63;	0.1702
644.92;	0.1706
645.20;	0.1710
645.48;	0.1714
645.77;	0.1718
646.05;	0.1721
646.34;	0.1725
646.62;	0.1729
646.91;	0.1733
647.19;	0.1736
647.47;	0.1740
647.76;	0.1744
648.04;	0.1747
648.33;	0.1751
648.61;	0.1755
648.90;	0.1758
649.18;	0.1762
649.46;	0.1765
649.75;	0.1769
650.03;	0.1772
650.32;	0.1776
650.60;	0.1779
650.89;	0.1783
651.17;	0.1786
651.45;	0.1789
651.74;	0.1793
652.02;	0.1796
652.31;	0.1799
652.59;	0.1803
652.88;	0.1806
653.16;	0.1809
653.44;	0.1812
653.73;	0.1815
654.01;	0.1819
654.30;	0.1822
654.58;	0.1825
654.87;	0.1828
655.15;	0.1831
655.44;	0.1834
655.72;	0.1837
656.00;	0.1840
656.29;	0.1843
656.57;	0.1845
656.86;	0.1848
657.14;	0.1851
657.43;	0.1854
657.71;	0.1857
657.99;	0.1859
658.28;	0.1862
658.56;	0.1865
658.85;	0.1867
659.13;	0.1870
659.42;	0.1872
659.70;	0.1875
659.98;	0.1878
660.27;	0.1880
660.55;	0.1882
660.84;	0.1885
661.12;	0.1887
661.41;	0.1890
661.69;	0.1892
661.97;	0.1894
662.26;	0.1897
662.54;	0.1899
662.83;	0.1901
663.11;	0.1903
663.40;	0.1905
663.68;	0.1907
663.96;	0.1909
664.25;	0.1912
664.53;	0.1914
664.82;	0.1915
665.10;	0.1917
665.39;	0.1919
665.67;	0.1921
665.95;	0.1923
666.24;	0.1925
666.52;	0.1927
666.81;	0.1928
667.09;	0.1930
667.38;	0.1932
667.66;	0.1933
667.94;	0.1935
668.23;	0.1937
668.51;	0.1938
668.80;	0.1940
669.08;	0.1941
669.37;	0.1943
669.65;	0.1944
669.93;	0.1945
670.22;	0.1947
670.50;	0.1948
670.79;	0.1949
671.07;	0.1951
671.36;	0.1952
671.64;	0.1953
671.92;	0.1954
672.21;	0.1955
672.49;	0.1956
672.78;	0.1957
673.06;	0.1958
673.35;	0.1959
673.63;	0.1960
673.92;	0.1961
674.20;	0.1962
674.48;	0.1963
674.77;	0.1964
675.05;	0.1964
675.34;	0.1965
675.62;	0.1966
675.91;	0.1967
676.19;	0.1967
676.47;	0.1968
676.76;	0.1968
677.04;	0.1969
677.33;	0.1969
677.61;	0.1970
677.90;	0.1970
678.18;	0.1970
678.46;	0.1971
678.75;	0.1971
679.03;	0.1971
679.32;	0.1972
679.60;	0.1972
679.89;	0.1972
680.17;	0.1972
680.45;	0.1972
680.74;	0.1972
681.02;	0.1972
681.31;	0.1972
681.59;	0.1972
681.88;	0.1972
682.16;	0.1972
682.44;	0.1972
682.73;	0.1972
683.01;	0.1971
683.30;	0.1971
683.58;	0.1971
683.87;	0.1970
684.15;	0.1970
684.43;	0.1970
684.72;	0.1969
685.00;	0.1969
685.29;	0.1968
685.57;	0.1968
685.86;	0.1967
686.14;	0.1966
686.42;	0.1966
686.71;	0.1965
686.99;	0.1964
687.28;	0.1964
687.56;	0.1963
687.85;	0.1962
688.13;	0.1961
688.41;	0.1960
688.70;	0.1959
688.98;	0.1958
689.27;	0.1957
689.55;	0.1956
689.84;	0.1955
690.12;	0.1954
690.40;	0.1953
690.69;	0.1952
690.97;	0.1950
691.26;	0.1949
691.54;	0.1948
691.83;	0.1947
692.11;	0.1945
692.40;	0.1944
692.68;	0.1942
692.96;	0.1941
693.25;	0.1940
693.53;	0.1938
693.82;	0.1936
694.10;	0.1935
694.39;	0.1933
694.67;	0.1932
694.95;	0.1930
695.24;	0.1928
695.52;	0.1926
695.81;	0.1925
696.09;	0.1923
696.38;	0.1921
696.66;	0.1919
696.94;	0.1917
697.23;	0.1915
697.51;	0.1913
697.80;	0.1911
698.08;	0.1909
698.37;	0.1907
698.65;	0.1905
698.93;	0.1903
699.22;	0.1901
699.50;	0.1898
699.79;	0.1896
700.07;	0.1894
700.36;	0.1892
700.64;	0.1889
700.92;	0.1887
701.21;	0.1884
701.49;	0.1882
701.78;	0.1880
702.06;	0.1877
702.35;	0.1875
702.63;	0.1872
702.91;	0.1869
703.20;	0.1867
703.48;	0.1864
703.77;	0.1862
704.05;	0.1859
704.34;	0.1856
704.62;	0.1853
704.90;	0.1851
705.19;	0.1848
705.47;	0.1845
705.76;	0.1842
706.04;	0.1839
706.33;	0.1836
706.61;	0.1833
706.89;	0.1830
707.18;	0.1827
707.46;	0.1824
707.75;	0.1821
708.03;	0.1818
708.32;	0.1815
708.60;	0.1812
708.88;	0.1809
709.17;	0.1805
709.45;	0.1802
709.74;	0.1799
710.02;	0.1796
710.31;	0.1792
710.59;	0.1789
710.88;	0.1786
711.16;	0.1782
711.44;	0.1779
711.73;	0.1775
712.01;	0.1772
712.30;	0.1768
712.58;	0.1765
712.87;	0.1761
713.15;	0.1758
713.43;	0.1754
713.72;	0.1751
714.00;	0.1747
714.29;	0.1743
714.57;	0.1740
714.86;	0.1736
715.14;	0.1732
715.42;	0.1728
715.71;	0.1725
715.99;	0.1721
716.28;	0.1717
716.56;	0.1713
716.85;	0.1709
717.13;	0.1705
717.41;	0.1701
717.70;	0.1697
717.98;	0.1694
718.27;	0.1690
718.55;	0.1686
718.84;	0.1682
719.12;	0.1677
719.40;	0.1673
719.69;	0.1669
719.97;	0.1665
720.26;	0.1661
720.54;	0.1657
720.83;	0.1653
721.11;	0.1649
721.39;	0.1644
721.68;	0.1640
721.96;	0.1636
722.25;	0.1632
722.53;	0.1627
722.82;	0.1623
723.10;	0.1619
723.38;	0.1615
723.67;	0.1610
723.95;	0.1606
724.24;	0.1601
724.52;	0.1597
724.81;	0.1593
725.09;	0.1588
725.37;	0.1584
725.66;	0.1579
725.94;	0.1575
726.23;	0.1570
726.51;	0.1566
726.80;	0.1561
727.08;	0.1557
727.36;	0.1552
727.65;	0.1548
727.93;	0.1543
728.22;	0.1539
728.50;	0.1534
728.79;	0.1529
729.07;	0.1525
729.36;	0.1520
729.64;	0.1515
729.92;	0.1511
730.21;	0.1506
730.49;	0.1501
730.78;	0.1497
731.06;	0.1492
731.35;	0.1487
731.63;	0.1482
731.91;	0.1478
732.20;	0.1473
732.48;	0.1468
732.77;	0.1463
733.05;	0.1458
733.34;	0.1454
733.62;	0.1449
733.90;	0.1444
734.19;	0.1439
734.47;	0.1434
734.76;	0.1429
735.04;	0.1425
735.33;	0.1420
735.61;	0.1415
735.89;	0.1410
736.18;	0.1405
736.46;	0.1400
736.75;	0.1395
737.03;	0.1390
737.32;	0.1385
737.60;	0.1380
737.88;	0.1375
738.17;	0.1370
738.45;	0.1365
738.74;	0.1360
739.02;	0.1356
739.31;	0.1351
739.59;	0.1346
739.87;	0.1341
740.16;	0.1336
740.44;	0.1331
740.73;	0.1326
741.01;	0.1321
741.30;	0.1315
741.58;	0.1310
741.86;	0.1305
742.15;	0.1300
742.43;	0.1295
742.72;	0.1290
743.00;	0.1285
743.29;	0.1280
743.57;	0.1275
743.85;	0.1270
744.14;	0.1265
744.42;	0.1260
744.71;	0.1255
744.99;	0.1250
745.28;	0.1245
745.56;	0.1240
745.84;	0.1235
746.13;	0.1230
746.41;	0.1225
746.70;	0.1219
746.98;	0.1214
747.27;	0.1209
747.55;	0.1204
747.84;	0.1199
748.12;	0.1194
748.40;	0.1189
748.69;	0.1184
748.97;	0.1179
749.26;	0.1174
749.54;	0.1169
749.83;	0.1164
750.11;	0.1159
750.39;	0.1153
750.68;	0.1148
750.96;	0.1143
751.25;	0.1138
751.53;	0.1133
751.82;	0.1128
752.10;	0.1123
752.38;	0.1118
752.67;	0.1113
752.95;	0.1108
753.24;	0.1103
753.52;	0.1098
753.81;	0.1093
754.09;	0.1088
754.37;	0.1083
754.66;	0.1078
754.94;	0.1073
755.23;	0.1068
755.51;	0.1063
755.80;	0.1058
756.08;	0.1053
756.36;	0.1048
756.65;	0.1043
756.93;	0.1038
757.22;	0.1033
757.50;	0.1028
757.79;	0.1023
758.07;	0.1018
758.35;	0.1013
758.64;	0.1008
758.92;	0.1003
759.21;	0.0998
759.49;	0.0993
759.78;	0.0988
760.06;	0.0983
760.34;	0.0978
760.63;	0.0973
760.91;	0.0968
761.20;	0.0963
761.48;	0.0959
761.77;	0.0954
762.05;	0.0949
762.33;	0.0944
762.62;	0.0939
762.90;	0.0934
763.19;	0.0929
763.47;	0.0925
763.76;	0.0920
764.04;	0.0915
764.32;	0.0910
764.61;	0.0905
764.89;	0.0901
765.18;	0.0896
765.46;	0.0891
765.75;	0.0886
766.03;	0.0881
766.32;	0.0877
766.60;	0.0872
766.88;	0.0867
767.17;	0.0863
767.45;	0.0858
767.74;	0.0853
768.02;	0.0848
768.31;	0.0844
768.59;	0.0839
768.87;	0.0834
769.16;	0.0830
769.44;	0.0825
769.73;	0.0821
770.01;	0.0816
770.30;	0.0811
770.58;	0.0807
770.86;	0.0802
771.15;	0.0798
771.43;	0.0793
771.72;	0.0789
772.00;	0.0784
772.29;	0.0780
772.57;	0.0775
772.85;	0.0771
773.14;	0.0766
773.42;	0.0762
773.71;	0.0757
773.99;	0.0753
774.28;	0.0748
774.56;	0.0744
774.84;	0.0740
775.13;	0.0735
775.41;	0.0731
775.70;	0.0726
775.98;	0.0722
776.27;	0.0718
776.55;	0.0713
776.83;	0.0709
777.12;	0.0705
777.40;	0.0700
777.69;	0.0696
777.97;	0.0692
778.26;	0.0688
778.54;	0.0683
778.82;	0.0679
779.11;	0.0675
779.39;	0.0671
779.68;	0.0667
779.96;	0.0663
780.25;	0.0658
780.53;	0.0654
780.81;	0.0650
781.10;	0.0646
781.38;	0.0642
781.67;	0.0638
781.95;	0.0634
782.24;	0.0630
782.52;	0.0626
782.80;	0.0622
783.09;	0.0618
783.37;	0.0614
783.66;	0.0610
783.94;	0.0606
784.23;	0.0602
784.51;	0.0598
784.80;	0.0594
785.08;	0.0590
785.36;	0.0586
785.65;	0.0582
785.93;	0.0579
786.22;	0.0575
786.50;	0.0571
786.79;	0.0567
787.07;	0.0563
787.35;	0.0559
787.64;	0.0556
787.92;	0.0552
788.21;	0.0548
788.49;	0.0545
788.78;	0.0541
789.06;	0.0537
789.34;	0.0533
789.63;	0.0530
789.91;	0.0526
790.20;	0.0523
790.48;	0.0519
790.77;	0.0515
791.05;	0.0512
791.33;	0.0508
791.62;	0.0505
791.90;	0.0501
792.19;	0.0498
792.47;	0.0494
792.76;	0.0491
793.04;	0.0487
793.32;	0.0484
793.61;	0.0480
793.89;	0.0477
794.18;	0.0474
794.46;	0.0470
794.75;	0.0467
795.03;	0.0463
795.31;	0.0460
795.60;	0.0457
795.88;	0.0453
796.17;	0.0450
796.45;	0.0447
796.74;	0.0444
797.02;	0.0440
797.30;	0.0437
797.59;	0.0434
797.87;	0.0431
798.16;	0.0428
798.44;	0.0424
798.73;	0.0421
799.01;	0.0418
799.29;	0.0415
799.58;	0.0412
799.86;	0.0409
800.15;	0.0406
800.43;	0.0403
800.72;	0.0400
801.00;	0.0397
801.28;	0.0394
801.57;	0.0391
801.85;	0.0388
802.14;	0.0385
802.42;	0.0382
802.71;	0.0379
802.99;	0.0376
803.28;	0.0373
803.56;	0.0370
803.84;	0.0367
804.13;	0.0364
804.41;	0.0362
804.70;	0.0359
804.98;	0.0356
805.27;	0.0353
805.55;	0.0350
805.83;	0.0348
806.12;	0.0345
806.40;	0.0342
806.69;	0.0339
806.97;	0.0337
807.26;	0.0334
807.54;	0.0331
807.82;	0.0329
808.11;	0.0326
808.39;	0.0324
808.68;	0.0321
808.96;	0.0318
809.25;	0.0316
809.53;	0.0313
809.81;	0.0311
810.10;	0.0308
810.38;	0.0306
810.67;	0.0303
810.95;	0.0301
811.24;	0.0298
811.52;	0.0296
811.80;	0.0293
812.09;	0.0291
812.37;	0.0288
812.66;	0.0286
812.94;	0.0284
813.23;	0.0281
813.51;	0.0279
813.79;	0.0277
814.08;	0.0274
814.36;	0.0272
814.65;	0.0270
814.93;	0.0267
815.22;	0.0265
815.50;	0.0263
815.78;	0.0261
816.07;	0.0258
816.35;	0.0256
816.64;	0.0254
816.92;	0.0252
817.21;	0.0250
817.49;	0.0248
817.77;	0.0245
818.06;	0.0243
818.34;	0.0241
818.63;	0.0239
818.91;	0.0237
819.20;	0.0235
819.48;	0.0233
819.76;	0.0231
820.05;	0.0229
820.33;	0.0227
820.62;	0.0225
820.90;	0.0223
821.19;	0.0221
821.47;	0.0219
821.76;	0.0217
822.04;	0.0215
822.32;	0.0213
822.61;	0.0211
822.89;	0.0209
823.18;	0.0208
823.46;	0.0206
823.75;	0.0204
824.03;	0.0202
824.31;	0.0200
824.60;	0.0198
824.88;	0.0197
825.17;	0.0195
825.45;	0.0193
825.74;	0.0191
826.02;	0.0190
826.30;	0.0188
826.59;	0.0186
826.87;	0.0184
827.16;	0.0183
827.44;	0.0181
827.73;	0.0179
828.01;	0.0178
828.29;	0.0176
828.58;	0.0174
828.86;	0.0173
829.15;	0.0171
829.43;	0.0170
829.72;	0.0168
830.00;	0.0166
