wavelength, nm;	absorption
364.00;	0.4184
364.30;	0.4252
364.59;	0.4320
364.89;	0.4388
365.18;	0.4458
365.48;	0.4529
365.77;	0.4600
366.07;	0.4672
366.36;	0.4745
366.66;	0.4819
366.95;	0.4894
367.25;	0.4969
367.54;	0.5046
367.84;	0.5123
368.14;	0.5201
368.43;	0.5280
368.73;	0.5360
369.02;	0.5441
369.32;	0.5522
369.61;	0.5605
369.91;	0.5688
370.20;	0.5773
370.50;	0.5858
370.79;	0.5944
371.09;	0.6031
371.38;	0.6119
371.68;	0.6208
371.98;	0.6298
372.27;	0.6388
372.57;	0.6480
372.86;	0.6572
373.16;	0.6666
373.45;	0.6760
373.75;	0.6855
374.04;	0.6952
374.34;	0.7049
374.63;	0.7147
374.93;	0.7246
375.23;	0.7346
375.52;	0.7446
375.82;	0.7548
376.11;	0.7651
376.41;	0.7754
376.70;	0.7859
377.00;	0.7964
377.29;	0.8071
377.59;	0.8178
377.88;	0.8286
378.18;	0.8395
378.47;	0.8505
378.77;	0.8616
379.07;	0.8728
379.36;	0.8841
379.66;	0.8955
379.95;	0.9069
380.25;	0.9185
380.54;	0.9302
380.84;	0.9419
381.13;	0.9537
381.43;	0.9656
381.72;	0.9777
382.02;	0.9898
382.31;	1.0019
382.61;	1.0142
382.91;	1.0266
383.20;	1.0390
383.50;	1.0516
383.79;	1.0642
384.09;	1.0769
384.38;	1.0897
384.68;	1.1026
384.97;	1.1156
385.27;	1.1286
385.56;	1.1418
385.86;	1.1550
386.15;	1.1683
386.45;	1.1817
386.75;	1.1952
387.04;	1.2087
387.34;	1.2223
387.63;	1.2361
387.93;	1.2498
388.22;	1.2637
388.52;	1.2776
388.81;	1.2917
389.11;	1.3058
389.40;	1.3199
389.70;	1.3342
389.99;	1.3485
390.29;	1.3629
390.59;	1.3773
390.88;	1.3918
391.18;	1.4064
391.47;	1.4211
391.77;	1.4358
392.06;	1.4506
392.36;	1.4654
392.65;	1.4803
392.95;	1.4953
393.24;	1.5103
393.54;	1.5254
393.83;	1.5406
394.13;	1.5558
394.43;	1.5711
394.72;	1.5864
395.02;	1.6017
395.31;	1.6172
395.61;	1.6326
395.90;	1.6482
396.20;	1.6637
396.49;	1.6793
396.79;	1.6950
397.08;	1.7107
397.38;	1.7264
397.68;	1.7422
397.97;	1.7580
398.27;	1.7739
398.56;	1.7898
398.86;	1.8057
399.15;	1.8216
399.45;	1.8376
399.74;	1.8536
400.04;	1.8697
400.33;	1.8857
400.63;	1.9018
400.92;	1.9179
401.22;	1.9340
401.52;	1.9502
401.81;	1.9663
402.11;	1.9825
402.40;	1.9987
402.70;	2.0149
402.99;	2.0311
403.29;	2.0473
403.58;	2.0635
403.88;	2.0797
404.17;	2.0960
404.47;	2.1122
404.76;	2.1284
405.06;	2.1446
405.36;	2.1608
405.65;	2.1770
405.95;	2.1932
406.24;	2.2093
406.54;	2.2255
406.83;	2.2416
407.13;	2.2578
407.42;	2.2738
407.72;	2.2899
408.01;	2.3060
408.31;	2.3220
408.60;	2.3380
408.90;	2.3539
409.20;	2.3698
409.49;	2.3857
409.79;	2.4016
410.08;	2.4174
410.38;	2.4331
410.67;	2.4489
410.97;	2.4645
411.26;	2.4802
411.56;	2.4957
411.85;	2.5112
412.15;	2.5267
412.44;	2.5421
412.74;	2.5574
413.04;	2.5727
413.33;	2.5879
413.63;	2.6031
413.92;	2.6181
414.22;	2.6331
414.51;	2.6481
414.81;	2.6629
415.10;	2.6777
415.40;	2.6924
415.69;	2.7070
415.99;	2.7215
416.28;	2.7360
416.58;	2.7503
416.88;	2.7646
417.17;	2.7787
417.47;	2.7928
417.76;	2.8068
418.06;	2.8206
418.35;	2.8344
418.65;	2.8480
418.94;	2.8616
419.24;	2.8750
419.53;	2.8884
419.83;	2.9016
420.12;	2.9147
420.42;	2.9277
420.72;	2.9405
421.01;	2.9533
421.31;	2.9659
421.60;	2.9784
421.90;	2.9908
422.19;	3.0030
422.49;	3.0151
422.78;	3.0271
423.08;	3.0389
423.37;	3.0506
423.67;	3.0621
423.97;	3.0736
424.26;	3.0848
424.56;	3.0959
424.85;	3.1069
425.15;	3.1177
425.44;	3.1284
425.74;	3.1389
426.03;	3.1493
426.33;	3.1595
426.62;	3.1696
426.92;	3.1795
427.21;	3.1892
427.51;	3.1987
427.81;	3.2081
428.10;	3.2174
428.40;	3.2264
428.69;	3.2353
428.99;	3.2441
429.28;	3.2526
429.58;	3.2610
429.87;	3.2692
430.17;	3.2772
430.46;	3.2851
430.76;	3.2927
431.05;	3.3002
431.35;	3.3075
431.65;	3.3146
431.94;	3.3215
432.24;	3.3283
432.53;	3.3348
432.83;	3.3412
433.12;	3.3474
433.42;	3.3534
433.71;	3.3592
434.01;	3.3648
434.30;	3.3702
434.60;	3.3754
434.89;	3.3804
435.19;	3.3852
435.49;	3.3898
435.78;	3.3942
436.08;	3.3985
436.37;	3.4025
436.67;	3.4063
436.96;	3.4099
437.26;	3.4133
437.55;	3.4165
437.85;	3.4195
438.14;	3.4223
438.44;	3.4249
438.73;	3.4273
439.03;	3.4295
439.33;	3.4315
439.62;	3.4333
439.92;	3.4348
440.21;	3.4362
440.51;	3.4374
440.80;	3.4383
441.10;	3.4391
441.39;	3.4396
441.69;	3.4399
441.98;	3.4400
442.28;	3.4399
442.57;	3.4396
442.87;	3.4391
443.17;	3.4384
443.46;	3.4375
443.76;	3.4364
444.05;	3.4350
444.35;	3.4335
444.64;	3.4317
444.94;	3.4298
445.23;	3.4276
445.53;	3.4253
445.82;	3.4227
446.12;	3.4199
446.42;	3.4169
446.71;	3.4137
447.01;	3.4103
447.30;	3.4068
447.60;	3.4030
447.89;	3.3990
448.19;	3.3948
448.48;	3.3904
448.78;	3.3858
449.07;	3.3810
449.37;	3.3760
449.66;	3.3708
449.96;	3.3654
450.26;	3.3599
450.55;	3.3541
450.85;	3.3481
451.14;	3.3420
451.44;	3.3357
451.73;	3.3291
452.03;	3.3224
452.32;	3.3155
452.62;	3.3084
452.91;	3.3011
453.21;	3.2937
453.50;	3.2860
453.80;	3.2782
454.10;	3.2702
454.39;	3.2620
454.69;	3.2537
454.98;	3.2452
455.28;	3.2365
455.57;	3.2276
455.87;	3.2186
456.16;	3.2093
456.46;	3.2000
456.75;	3.1904
457.05;	3.1807
457.34;	3.1709
457.64;	3.1608
457.94;	3.1506
458.23;	3.1403
458.53;	3.1298
458.82;	3.1191
459.12;	3.1083
459.41;	3.0974
459.71;	3.0863
460.00;	3.0750
460.30;	3.0636
460.59;	3.0521
460.89;	3.0404
461.18;	3.0286
461.48;	3.0167
461.78;	3.0046
462.07;	2.9924
462.37;	2.9800
462.66;	2.9676
462.96;	2.9550
463.25;	2.9422
463.55;	2.9294
463.84;	2.9164
464.14;	2.9034
464.43;	2.8902
464.73;	2.8768
465.02;	2.8634
465.32;	2.8499
465.62;	2.8362
465.91;	2.8225
466.21;	2.8086
466.50;	2.7947
466.80;	2.7806
467.09;	2.7665
467.39;	2.7523
467.68;	2.7379
467.98;	2.7235
468.27;	2.7090
468.57;	2.6944
468.87;	2.6797
469.16;	2.6650
469.46;	2.6501
469.75;	2.6352
470.05;	2.6202
470.34;	2.6052
470.64;	2.5901
470.93;	2.5749
471.23;	2.5596
471.52;	2.5443
471.82;	2.5289
472.11;	2.5134
472.41;	2.4979
472.71;	2.4824
473.00;	2.4668
473.30;	2.4511
473.59;	2.4354
473.89;	2.4197
474.18;	2.4039
474.48;	2.3880
474.77;	2.3722
475.07;	2.3563
475.36;	2.3403
475.66;	2.3243
475.95;	2.3083
476.25;	2.2923
476.55;	2.2762
476.84;	2.2602
477.14;	2.2441
477.43;	2.2279
477.73;	2.2118
478.02;	2.1956
478.32;	2.1795
478.61;	2.1633
478.91;	2.1471
479.20;	2.1309
479.50;	2.1147
479.79;	2.0985
480.09;	2.0823
480.39;	2.0661
480.68;	2.0499
480.98;	2.0337
481.27;	2.0175
481.57;	2.0013
481.86;	1.9851
482.16;	1.9690
482.45;	1.9528
482.75;	1.9367
483.04;	1.9206
483.34;	1.9045
483.63;	1.8884
483.93;	1.8723
484.23;	1.8563
484.52;	1.8403
484.82;	1.8243
485.11;	1.8084
485.41;	1.7925
485.70;	1.7766
486.00;	1.7608
486.29;	1.7450
486.59;	1.7292
486.88;	1.7135
487.18;	1.6978
487.48;	1.6821
487.77;	1.6665
488.07;	1.6510
488.36;	1.6355
488.66;	1.6200
488.95;	1.6046
489.25;	1.5892
489.54;	1.5739
489.84;	1.5587
490.13;	1.5435
490.43;	1.5283
490.72;	1.5133
491.02;	1.4982
491.32;	1.4833
491.61;	1.4684
491.91;	1.4535
492.20;	1.4387
492.50;	1.4240
492.79;	1.4094
493.09;	1.3948
493.38;	1.3803
493.68;	1.3659
493.97;	1.3515
494.27;	1.3372
494.56;	1.3230
494.86;	1.3088
495.16;	1.2947
495.45;	1.2807
495.75;	1.2668
496.04;	1.2529
496.34;	1.2392
496.63;	1.2255
496.93;	1.2119
497.22;	1.1983
497.52;	1.1849
497.81;	1.1715
498.11;	1.1582
498.40;	1.1450
498.70;	1.1319
499.00;	1.1188
499.29;	1.1059
499.59;	1.0930
499.88;	1.0802
500.18;	1.0675
500.47;	1.0549
500.77;	1.0423
501.06;	1.0299
501.36;	1.0176
501.65;	1.0053
501.95;	0.9931
502.24;	0.9810
502.54;	0.9690
502.84;	0.9571
503.13;	0.9453
503.43;	0.9336
503.72;	0.9220
504.02;	0.9104
504.31;	0.8990
504.61;	0.8876
504.90;	0.8763
505.20;	0.8652
505.49;	0.8541
505.79;	0.8431
506.08;	0.8322
506.38;	0.8214
506.68;	0.8107
506.97;	0.8001
507.27;	0.7895
507.56;	0.7791
507.86;	0.7688
508.15;	0.7585
508.45;	0.7484
508.74;	0.7383
509.04;	0.7284
509.33;	0.7185
509.63;	0.7087
509.93;	0.6990
510.22;	0.6894
510.52;	0.6799
510.81;	0.6705
511.11;	0.6612
511.40;	0.6520
511.70;	0.6428
511.99;	0.6338
512.29;	0.6248
512.58;	0.6160
512.88;	0.6072
513.17;	0.5985
513.47;	0.5899
513.77;	0.5814
514.06;	0.5730
514.36;	0.5647
514.65;	0.5565
514.95;	0.5483
515.24;	0.5403
515.54;	0.5323
515.83;	0.5245
516.13;	0.5167
516.42;	0.5090
516.72;	0.5014
517.01;	0.4938
517.31;	0.4864
517.61;	0.4790
517.90;	0.4718
518.20;	0.4646
518.49;	0.4575
518.79;	0.4505
519.08;	0.4435
519.38;	0.4367
519.67;	0.4299
519.97;	0.4233
520.26;	0.4167
520.56;	0.4101
520.85;	0.4037
521.15;	0.3973
521.45;	0.3911
521.74;	0.3849
522.04;	0.3787
522.33;	0.3727
522.63;	0.3667
522.92;	0.3608
523.22;	0.3550
523.51;	0.3493
523.81;	0.3436
524.10;	0.3380
524.40;	0.3325
524.69;	0.3271
524.99;	0.3217
525.29;	0.3164
525.58;	0.3112
525.88;	0.3061
526.17;	0.3010
526.47;	0.2960
526.76;	0.2910
527.06;	0.2862
527.35;	0.2814
527.65;	0.2766
527.94;	0.2720
528.24;	0.2674
528.53;	0.2628
528.83;	0.2584
529.13;	0.2540
529.42;	0.2496
529.72;	0.2454
530.01;	0.2411
530.31;	0.2370
530.60;	0.2329
530.90;	0.2289
531.19;	0.2249
531.49;	0.2210
531.78;	0.2172
532.08;	0.2134
532.38;	0.2097
532.67;	0.2060
532.97;	0.2024
533.26;	0.1988
533.56;	0.1953
533.85;	0.1919
534.15;	0.1885
534.44;	0.1851
534.74;	0.1819
535.03;	0.1786
535.33;	0.1755
535.62;	0.1723
535.92;	0.1693
536.22;	0.1662
536.51;	0.1633
536.81;	0.1603
537.10;	0.1575
537.40;	0.1546
537.69;	0.1518
537.99;	0.1491
538.28;	0.1464
538.58;	0.1438
538.87;	0.1412
539.17;	0.1386
539.46;	0.1361
539.76;	0.1337
540.06;	0.1313
540.35;	0.1289
540.65;	0.1266
540.94;	0.1243
541.24;	0.1220
541.53;	0.1198
541.83;	0.1176
542.12;	0.1155
542.42;	0.1134
542.71;	0.1113
543.01;	0.1093
543.30;	0.1074
543.60;	0.1054
543.90;	0.1035
544.19;	0.1016
544.49;	0.0998
544.78;	0.0980
545.08;	0.0962
545.37;	0.0945
545.67;	0.0928
545.96;	0.0911
546.26;	0.0895
546.55;	0.0879
546.85;	0.0864
547.14;	0.0848
547.44;	0.0833
547.74;	0.0818
548.03;	0.0804
548.33;	0.0790
548.62;	0.0776
548.92;	0.0762
549.21;	0.0749
549.51;	0.0736
549.80;	0.0723
550.10;	0.0711
550.39;	0.0698
550.69;	0.0686
550.98;	0.0675
551.28;	0.0663
551.58;	0.0652
551.87;	0.0641
552.17;	0.0630
552.46;	0.0620
552.76;	0.0610
553.05;	0.0599
553.35;	0.0590
553.64;	0.0580
553.94;	0.0571
554.23;	0.0562
554.53;	0.0553
554.83;	0.0544
555.12;	0.0535
555.42;	0.0527
555.71;	0.0519
556.01;	0.0511
556.30;	0.0503
556.60;	0.0496
556.89;	0.0488
557.19;	0.0481
557.48;	0.0474
557.78;	0.0467
558.07;	0.0460
558.37;	0.0454
558.67;	0.0448
558.96;	0.0441
559.26;	0.0435
559.55;	0.0430
559.85;	0.0424
560.14;	0.0418
560.44;	0.0413
560.73;	0.0408
561.03;	0.0403
561.32;	0.0398
561.62;	0.0393
561.91;	0.0388
562.21;	0.0384
562.51;	0.0379
562.80;	0.0375
563.10;	0.0371
563.39;	0.0367
563.69;	0.0363
563.98;	0.0359
564.28;	0.0355
564.57;	0.0352
564.87;	0.0348
565.16;	0.0345
565.46;	0.0342
565.75;	0.0339
566.05;	0.0336
566.35;	0.0333
566.64;	0.0330
566.94;	0.0327
567.23;	0.0325
567.53;	0.0322
567.82;	0.0320
568.12;	0.0317
568.41;	0.0315
568.71;	0.0313
569.00;	0.0311
569.30;	0.0309
569.59;	0.0307
569.89;	0.0305
570.19;	0.0303
570.48;	0.0302
570.78;	0.0300
571.07;	0.0299
571.37;	0.0297
571.66;	0.0296
571.96;	0.0295
572.25;	0.0294
572.55;	0.0292
572.84;	0.0291
573.14;	0.0290
573.43;	0.0289
573.73;	0.0289
574.03;	0.0288
574.32;	0.0287
574.62;	0.0286
574.91;	0.0286
575.21;	0.0285
575.50;	0.0285
575.80;	0.0284
576.09;	0.0284
576.39;	0.0283
576.68;	0.0283
576.98;	0.0283
577.27;	0.0283
577.57;	0.0282
577.87;	0.0282
578.16;	0.0282
578.46;	0.0282
578.75;	0.0282
579.05;	0.0282
579.34;	0.0283
579.64;	0.0283
579.93;	0.0283
580.23;	0.0283
580.52;	0.0283
580.82;	0.0284
581.12;	0.0284
581.41;	0.0285
581.71;	0.0285
582.00;	0.0286
582.30;	0.0286
582.59;	0.0287
582.89;	0.0287
583.18;	0.0288
583.48;	0.0288
583.77;	0.0289
584.07;	0.0290
584.36;	0.0291
584.66;	0.0291
584.96;	0.0292
585.25;	0.0293
585.55;	0.0294
585.84;	0.0295
586.14;	0.0296
586.43;	0.0297
586.73;	0.0297
587.02;	0.0298
587.32;	0.0299
587.61;	0.0301
587.91;	0.0302
588.20;	0.0303
588.50;	0.0304
588.80;	0.0305
589.09;	0.0306
589.39;	0.0307
589.68;	0.0308
589.98;	0.0310
590.27;	0.0311
590.57;	0.0312
590.86;	0.0313
591.16;	0.0315
591.45;	0.0316
591.75;	0.0317
592.04;	0.0319
592.34;	0.0320
592.64;	0.0321
592.93;	0.0323
593.23;	0.0324
593.52;	0.0326
593.82;	0.0327
594.11;	0.0328
594.41;	0.0330
594.70;	0.0331
595.00;	0.0333
595.29;	0.0334
595.59;	0.0336
595.88;	0.0337
596.18;	0.0339
596.48;	0.0341
596.77;	0.0342
597.07;	0.0344
597.36;	0.0345
597.66;	0.0347
597.95;	0.0348
598.25;	0.0350
598.54;	0.0352
598.84;	0.0353
599.13;	0.0355
599.43;	0.0357
599.73;	0.0358
600.02;	0.0360
600.32;	0.0362
600.61;	0.0363
600.91;	0.0365
601.20;	0.0367
601.50;	0.0369
601.79;	0.0370
602.09;	0.0372
602.38;	0.0374
602.68;	0.0376
602.97;	0.0377
603.27;	0.0379
603.57;	0.0381
603.86;	0.0383
604.16;	0.0385
604.45;	0.0386
604.75;	0.0388
605.04;	0.0390
605.34;	0.0392
605.63;	0.0394
605.93;	0.0395
606.22;	0.0397
606.52;	0.0399
606.81;	0.0401
607.11;	0.0403
607.41;	0.0405
607.70;	0.0407
608.00;	0.0408
608.29;	0.0410
608.59;	0.0412
608.88;	0.0414
609.18;	0.0416
609.47;	0.0418
609.77;	0.0420
610.06;	0.0422
610.36;	0.0423
610.65;	0.0425
610.95;	0.0427
611.25;	0.0429
611.54;	0.0431
611.84;	0.0433
612.13;	0.0435
612.43;	0.0437
612.72;	0.0439
613.02;	0.0441
613.31;	0.0443
613.61;	0.0444
613.90;	0.0446
614.20;	0.0448
614.49;	0.0450
614.79;	0.0452
615.09;	0.0454
615.38;	0.0456
615.68;	0.0458
615.97;	0.0460
616.27;	0.0462
616.56;	0.0464
616.86;	0.0466
617.15;	0.0468
617.45;	0.0469
617.74;	0.0471
618.04;	0.0473
618.33;	0.0475
618.63;	0.0477
618.93;	0.0479
619.22;	0.0481
619.52;	0.0483
619.81;	0.0485
620.11;	0.0487
620.40;	0.0489
620.70;	0.0491
620.99;	0.0493
621.29;	0.0495
621.58;	0.0496
621.88;	0.0498
622.17;	0.0500
622.47;	0.0502
622.77;	0.0504
623.06;	0.0506
623.36;	0.0508
623.65;	0.0510
623.95;	0.0512
624.24;	0.0514
624.54;	0.0516
624.83;	0.0518
625.13;	0.0519
625.42;	0.0521
625.72;	0.0523
626.02;	0.0525
626.31;	0.0527
626.61;	0.0529
626.90;	0.0531
627.20;	0.0533
627.49;	0.0534
627.79;	0.0536
628.08;	0.0538
628.38;	0.0540
628.67;	0.0542
628.97;	0.0544
629.26;	0.0546
629.56;	0.0548
629.86;	0.0549
630.15;	0.0551
630.45;	0.0553
630.74;	0.0555
631.04;	0.0557
631.33;	0.0559
631.63;	0.0560
631.92;	0.0562
632.22;	0.0564
632.51;	0.0566
632.81;	0.0568
633.10;	0.0569
633.40;	0.0571
633.70;	0.0573
633.99;	0.0575
634.29;	0.0576
634.58;	0.0578
634.88;	0.0580
635.17;	0.0582
635.47;	0.0583
635.76;	0.0585
636.06;	0.0587
636.35;	0.0589
636.65;	0.0590
636.94;	0.0592
637.24;	0.0594
637.54;	0.0596
637.83;	0.0597
638.13;	0.0599
638.42;	0.0601
638.72;	0.0602
639.01;	0.0604
639.31;	0.0606
639.60;	0.0607
639.90;	0.0609
640.19;	0.0611
640.49;	0.0612
640.78;	0.0614
641.08;	0.0615
641.38;	0.0617
641.67;	0.0619
641.97;	0.0620
642.26;	0.0622
642.56;	0.0623
642.85;	0.0625
643.15;	0.0627
643.44;	0.0628
643.74;	0.0630
644.03;	0.0631
644.33;	0.0633
644.62;	0.0634
644.92;	0.0636
645.22;	0.0637
645.51;	0.0639
645.81;	0.0640
646.10;	0.0642
646.40;	0.0643
646.69;	0.0645
646.99;	0.0646
647.28;	0.0648
647.58;	0.0649
647.87;	0.0650
648.17;	0.0652
648.47;	0.0653
648.76;	0.0655
649.06;	0.0656
649.35;	0.0657
649.65;	0.0659
649.94;	0.0660
650.24;	0.0661
650.53;	0.0663
650.83;	0.0664
651.12;	0.0665
651.42;	0.0667
651.71;	0.0668
652.01;	0.0669
652.31;	0.0671
652.60;	0.0672
652.90;	0.0673
653.19;	0.0674
653.49;	0.0676
653.78;	0.0677
654.08;	0.0678
654.37;	0.0679
654.67;	0.0680
654.96;	0.0681
655.26;	0.0683
655.55;	0.0684
655.85;	0.0685
656.15;	0.0686
656.44;	0.0687
656.74;	0.0688
657.03;	0.0689
657.33;	0.0690
657.62;	0.0692
657.92;	0.0693
658.21;	0.0694
658.51;	0.0695
658.80;	0.0696
659.10;	0.0697
659.39;	0.0698
659.69;	0.0699
659.99;	0.0700
660.28;	0.0701
660.58;	0.0702
660.87;	0.0703
661.17;	0.0703
661.46;	0.0704
661.76;	0.0705
662.05;	0.0706
662.35;	0.0707
662.64;	0.0708
662.94;	0.0709
663.23;	0.0710
663.53;	0.0710
663.83;	0.0711
664.12;	0.0712
664.42;	0.0713
664.71;	0.0714
665.01;	0.0714
665.30;	0.0715
665.60;	0.0716
665.89;	0.0716
666.19;	0.0717
666.48;	0.0718
666.78;	0.0719
667.08;	0.0719
667.37;	0.0720
667.67;	0.0721
667.96;	0.0721
668.26;	0.0722
668.55;	0.0722
668.85;	0.0723
669.14;	0.0724
669.44;	0.0724
669.73;	0.0725
670.03;	0.0725
670.32;	0.0726
670.62;	0.0726
670.92;	0.0727
671.21;	0.0727
671.51;	0.0728
671.80;	0.0728
672.10;	0.0728
672.39;	0.0729
672.69;	0.0729
672.98;	0.0730
673.28;	0.0730
673.57;	0.0730
673.87;	0.0731
674.16;	0.0731
674.46;	0.0731
674.76;	0.0732
675.05;	0.0732
675.35;	0.0732
675.64;	0.0733
675.94;	0.0733
676.23;	0.0733
676.53;	0.0733
676.82;	0.0734
677.12;	0.0734
677.41;	0.0734
677.71;	0.0734
678.00;	0.0734
678.30;	0.0734
678.60;	0.0734
678.89;	0.0735
679.19;	0.0735
679.48;	0.0735
679.78;	0.0735
680.07;	0.0735
680.37;	0.0735
680.66;	0.0735
680.96;	0.0735
681.25;	0.0735
681.55;	0.0735
681.84;	0.0735
682.14;	0.0735
682.44;	0.0735
682.73;	0.0735
683.03;	0.0735
683.32;	0.0734
683.62;	0.0734
683.91;	0.0734
684.21;	0.0734
684.50;	0.0734
684.80;	0.0734
685.09;	0.0734
685.39;	0.0733
685.68;	0.0733
685.98;	0.0733
686.28;	0.0733
686.57;	0.0732
686.87;	0.0732
687.16;	0.0732
687.46;	0.0732
687.75;	0.0731
688.05;	0.0731
688.34;	0.0731
688.64;	0.0730
688.93;	0.0730
689.23;	0.0729
689.52;	0.0729
689.82;	0.0729
690.12;	0.0728
690.41;	0.0728
690.71;	0.0727
691.00;	0.0727
691.30;	0.0726
691.59;	0.0726
691.89;	0.0725
692.18;	0.0725
692.48;	0.0724
692.77;	0.0724
693.07;	0.0723
693.37;	0.0723
693.66;	0.0722
693.96;	0.0721
694.25;	0.0721
694.55;	0.0720
694.84;	0.0719
695.14;	0.0719
695.43;	0.0718
695.73;	0.0717
696.02;	0.0717
696.32;	0.0716
696.61;	0.0715
696.91;	0.0715
697.21;	0.0714
697.50;	0.0713
697.80;	0.0712
698.09;	0.0711
698.39;	0.0711
698.68;	0.0710
698.98;	0.0709
699.27;	0.0708
699.57;	0.0707
699.86;	0.0706
700.16;	0.0705
700.45;	0.0705
700.75;	0.0704
701.05;	0.0703
701.34;	0.0702
701.64;	0.0701
701.93;	0.0700
702.23;	0.0699
702.52;	0.0698
702.82;	0.0697
703.11;	0.0696
703.41;	0.0695
703.70;	0.0694
704.00;	0.0693
704.29;	0.0692
704.59;	0.0691
704.89;	0.0690
705.18;	0.0689
705.48;	0.0687
705.77;	0.0686
706.07;	0.0685
706.36;	0.0684
706.66;	0.0683
706.95;	0.0682
707.25;	0.0681
707.54;	0.0679
707.84;	0.0678
708.13;	0.0677
708.43;	0.0676
708.73;	0.0675
709.02;	0.0673
709.32;	0.0672
709.61;	0.0671
709.91;	0.0670
710.20;	0.0668
710.50;	0.0667
710.79;	0.0666
711.09;	0.0664
711.38;	0.0663
711.68;	0.0662
711.98;	0.0660
712.27;	0.0659
712.57;	0.0658
712.86;	0.0656
713.16;	0.0655
713.45;	0.0654
713.75;	0.0652
714.04;	0.0651
714.34;	0.0649
714.63;	0.0648
714.93;	0.0646
715.22;	0.0645
715.52;	0.0644
715.82;	0.0642
716.11;	0.0641
716.41;	0.0639
716.70;	0.0638
717.00;	0.0636
717.29;	0.0635
717.59;	0.0633
717.88;	0.0632
718.18;	0.0630
718.47;	0.0629
718.77;	0.0627
719.06;	0.0625
719.36;	0.0624
719.66;	0.0622
719.95;	0.0621
720.25;	0.0619
720.54;	0.0617
720.84;	0.0616
721.13;	0.0614
721.43;	0.0613
721.72;	0.0611
722.02;	0.0609
722.31;	0.0608
722.61;	0.0606
722.90;	0.0604
723.20;	0.0603
723.50;	0.0601
723.79;	0.0599
724.09;	0.0598
724.38;	0.0596
724.68;	0.0594
724.97;	0.0593
725.27;	0.0591
725.56;	0.0589
725.86;	0.0587
726.15;	0.0586
726.45;	0.0584
726.74;	0.0582
727.04;	0.0580
727.34;	0.0579
727.63;	0.0577
727.93;	0.0575
728.22;	0.0573
728.52;	0.0572
728.81;	0.0570
729.11;	0.0568
729.40;	0.0566
729.70;	0.0564
729.99;	0.0563
730.29;	0.0561
730.58;	0.0559
730.88;	0.0557
731.18;	0.0555
731.47;	0.0553
731.77;	0.0552
732.06;	0.0550
732.36;	0.0548
732.65;	0.0546
732.95;	0.0544
733.24;	0.0542
733.54;	0.0540
733.83;	0.0539
734.13;	0.0537
734.42;	0.0535
734.72;	0.0533
735.02;	0.0531
735.31;	0.0529
735.61;	0.0527
735.90;	0.0525
736.20;	0.0523
736.49;	0.0522
736.79;	0.0520
737.08;	0.0518
737.38;	0.0516
737.67;	0.0514
737.97;	0.0512
738.27;	0.0510
738.56;	0.0508
738.86;	0.0506
739.15;	0.0504
739.45;	0.0502
739.74;	0.0500
740.04;	0.0498
740.33;	0.0497
740.63;	0.0495
740.92;	0.0493
741.22;	0.0491
741.51;	0.0489
741.81;	0.0487
742.11;	0.0485
742.40;	0.0483
742.70;	0.0481
742.99;	0.0479
743.29;	0.0477
743.58;	0.0475
743.88;	0.0473
744.17;	0.0471
744.47;	0.0469
744.76;	0.0467
745.06;	0.0465
745.35;	0.0463
745.65;	0.0461
745.95;	0.0459
746.24;	0.0457
746.54;	0.0455
746.83;	0.0454
747.13;	0.0452
747.42;	0.0450
747.72;	0.0448
748.01;	0.0446
748.31;	0.0444
748.60;	0.0442
748.90;	0.0440
749.19;	0.0438
749.49;	0.0436
749.79;	0.0434
750.08;	0.0432
750.38;	0.0430
750.67;	0.0428
750.97;	0.0426
751.26;	0.0424
751.56;	0.0422
751.85;	0.0420
752.15;	0.0418
752.44;	0.0416
752.74;	0.0414
753.03;	0.0412
753.33;	0.0410
753.63;	0.0408
753.92;	0.0406
754.22;	0.0405
754.51;	0.0403
754.81;	0.0401
755.10;	0.0399
755.40;	0.0397
755.69;	0.0395
755.99;	0.0393
756.28;	0.0391
756.58;	0.0389
756.88;	0.0387
757.17;	0.0385
757.47;	0.0383
757.76;	0.0381
758.06;	0.0379
758.35;	0.0377
758.65;	0.0375
758.94;	0.0374
759.24;	0.0372
759.53;	0.0370
759.83;	0.0368
760.12;	0.0366
760.42;	0.0364
760.72;	0.0362
761.01;	0.0360
761.31;	0.0358
761.60;	0.0356
761.90;	0.0355
762.19;	0.0353
762.49;	0.0351
762.78;	0.0349
763.08;	0.0347
763.37;	0.0345
763.67;	0.0343
763.96;	0.0341
764.26;	0.0340
764.56;	0.0338
764.85;	0.0336
765.15;	0.0334
765.44;	0.0332
765.74;	0.0330
766.03;	0.0328
766.33;	0.0327
766.62;	0.0325
766.92;	0.0323
767.21;	0.0321
767.51;	0.0319
767.80;	0.0318
768.10;	0.0316
768.40;	0.0314
768.69;	0.0312
768.99;	0.0310
769.28;	0.0308
769.58;	0.0307
769.87;	0.0305
770.17;	0.0303
770.46;	0.0301
770.76;	0.0300
771.05;	0.0298
771.35;	0.0296
771.64;	0.0294
771.94;	0.0293
772.24;	0.0291
772.53;	0.0289
772.83;	0.0287
773.12;	0.0286
773.42;	0.0284
773.71;	0.0282
774.01;	0.0280
774.30;	0.0279
774.60;	0.0277
774.89;	0.0275
775.19;	0.0274
775.48;	0.0272
775.78;	0.0270
776.08;	0.0269
776.37;	0.0267
776.67;	0.0265
776.96;	0.0264
777.26;	0.0262
777.55;	0.0260
777.85;	0.0259
778.14;	0.0257
778.44;	0.0255
778.73;	0.0254
779.03;	0.0252
779.33;	0.0250
779.62;	0.0249
779.92;	0.0247
780.21;	0.0246
780.51;	0.0244
780.80;	0.0242
781.10;	0.0241
781.39;	0.0239
781.69;	0.0238
781.98;	0.0236
782.28;	0.0234
782.57;	0.0233
782.87;	0.0231
783.17;	0.0230
783.46;	0.0228
783.76;	0.0227
784.05;	0.0225
784.35;	0.0224
784.64;	0.0222
784.94;	0.0221
785.23;	0.0219
785.53;	0.0218
785.82;	0.0216
786.12;	0.0215
786.41;	0.0213
786.71;	0.0212
787.01;	0.0210
787.30;	0.0209
787.60;	0.0207
787.89;	0.0206
788.19;	0.0204
788.48;	0.0203
788.78;	0.0202
789.07;	0.0200
789.37;	0.0199
789.66;	0.0197
789.96;	0.0196
790.25;	0.0194
790.55;	0.0193
790.85;	0.0192
791.14;	0.0190
791.44;	0.0189
791.73;	0.0188
792.03;	0.0186
792.32;	0.0185
792.62;	0.0183
792.91;	0.0182
793.21;	0.0181
793.50;	0.0179
793.80;	0.0178
794.09;	0.0177
794.39;	0.0176
794.69;	0.0174
794.98;	0.0173
795.28;	0.0172
795.57;	0.0170
795.87;	0.0169
796.16;	0.0168
796.46;	0.0166
796.75;	0.0165
797.05;	0.0164
797.34;	0.0163
797.64;	0.0161
797.93;	0.0160
798.23;	0.0159
798.53;	0.0158
798.82;	0.0157
799.12;	0.0155
799.41;	0.0154
799.71;	0.0153
800.00;	0.0152
800.30;	0.0151
800.59;	0.0149
800.89;	0.0148
801.18;	0.0147
801.48;	0.0146
801.77;	0.0145
802.07;	0.0144
802.37;	0.0142
802.66;	0.0141
802.96;	0.0140
803.25;	0.0139
803.55;	0.0138
803.84;	0.0137
804.14;	0.0136
804.43;	0.0135
804.73;	0.0134
805.02;	0.0132
805.32;	0.0131
805.62;	0.0130
805.91;	0.0129
806.21;	0.0128
806.50;	0.0127
806.80;	0.0126
807.09;	0.0125
807.39;	0.0124
807.68;	0.0123
807.98;	0.0122
808.27;	0.0121
808.57;	0.0120
808.86;	0.0119
809.16;	0.0118
809.46;	0.0117
809.75;	0.0116
810.05;	0.0115
810.34;	0.0114
810.64;	0.0113
810.93;	0.0112
811.23;	0.0111
811.52;	0.0110
811.82;	0.0109
812.11;	0.0108
812.41;	0.0107
812.70;	0.0106
813.00;	0.0106
