wavelength, nm;	absorption
351.00;	0.1902
351.44;	0.1955
351.87;	0.2009
352.31;	0.2064
352.74;	0.2121
353.18;	0.2178
353.61;	0.2237
354.05;	0.2298
354.48;	0.2359
354.92;	0.2422
355.35;	0.2486
355.79;	0.2552
356.23;	0.2619
356.66;	0.2687
357.10;	0.2757
357.53;	0.2829
357.97;	0.2901
358.40;	0.2976
358.84;	0.3052
359.27;	0.3129
359.71;	0.3208
360.14;	0.3288
360.58;	0.3370
361.02;	0.3453
361.45;	0.3539
361.89;	0.3625
362.32;	0.3714
362.76;	0.3804
363.19;	0.3896
363.63;	0.3989
364.06;	0.4084
364.50;	0.4181
364.93;	0.4280
365.37;	0.4380
365.81;	0.4482
366.24;	0.4586
366.68;	0.4692
367.11;	0.4799
367.55;	0.4908
367.98;	0.5019
368.42;	0.5132
368.85;	0.5247
369.29;	0.5364
369.72;	0.5482
370.16;	0.5603
370.60;	0.5725
371.03;	0.5849
371.47;	0.5976
371.90;	0.6104
372.34;	0.6234
372.77;	0.6366
373.21;	0.6499
373.64;	0.6635
374.08;	0.6773
374.51;	0.6913
374.95;	0.7054
375.39;	0.7198
375.82;	0.7344
376.26;	0.7491
376.69;	0.7641
377.13;	0.7792
377.56;	0.7945
378.00;	0.8101
378.43;	0.8258
378.87;	0.8417
379.30;	0.8579
379.74;	0.8742
380.18;	0.8907
380.61;	0.9074
381.05;	0.9243
381.48;	0.9414
381.92;	0.9586
382.35;	0.9761
382.79;	0.9938
383.22;	1.0116
383.66;	1.0296
384.09;	1.0478
384.53;	1.0662
384.97;	1.0848
385.40;	1.1035
385.84;	1.1225
386.27;	1.1416
386.71;	1.1608
387.14;	1.1803
387.58;	1.1999
388.01;	1.2196
388.45;	1.2396
388.88;	1.2597
389.32;	1.2799
389.76;	1.3004
390.19;	1.3209
390.63;	1.3416
391.06;	1.3625
391.50;	1.3835
391.93;	1.4046
392.37;	1.4259
392.80;	1.4473
393.24;	1.4688
393.67;	1.4905
394.11;	1.5123
394.55;	1.5342
394.98;	1.5562
395.42;	1.5783
395.85;	1.6005
396.29;	1.6229
396.72;	1.6453
397.16;	1.6678
397.59;	1.6904
398.03;	1.7131
398.46;	1.7358
398.90;	1.7586
399.34;	1.7815
399.77;	1.8045
400.21;	1.8275
400.64;	1.8505
401.08;	1.8736
401.51;	1.8968
401.95;	1.9200
402.38;	1.9432
402.82;	1.9664
403.25;	1.9896
403.69;	2.0129
404.13;	2.0361
404.56;	2.0594
405.00;	2.0826
405.43;	2.1059
405.87;	2.1291
406.30;	2.1523
406.74;	2.1754
407.17;	2.1985
407.61;	2.2216
408.04;	2.2446
408.48;	2.2676
408.92;	2.2904
409.35;	2.3133
409.79;	2.3360
410.22;	2.3586
410.66;	2.3812
411.09;	2.4037
411.53;	2.4260
411.96;	2.4482
412.40;	2.4704
412.83;	2.4923
413.27;	2.5142
413.71;	2.5359
414.14;	2.5575
414.58;	2.5789
415.01;	2.6001
415.45;	2.6212
415.88;	2.6421
416.32;	2.6628
416.75;	2.6833
417.19;	2.7037
417.62;	2.7238
418.06;	2.7437
418.50;	2.7634
418.93;	2.7829
419.37;	2.8021
419.80;	2.8211
420.24;	2.8399
420.67;	2.8584
421.11;	2.8767
421.54;	2.8947
421.98;	2.9124
422.41;	2.9298
422.85;	2.9470
423.29;	2.9639
423.72;	2.9805
424.16;	2.9967
424.59;	3.0127
425.03;	3.0284
425.46;	3.0437
425.90;	3.0587
426.33;	3.0734
426.77;	3.0878
427.20;	3.1018
427.64;	3.1154
428.08;	3.1288
428.51;	3.1417
428.95;	3.1543
429.38;	3.1666
429.82;	3.1784
430.25;	3.1899
430.69;	3.2010
431.12;	3.2118
431.56;	3.2221
431.99;	3.2321
432.43;	3.2416
432.87;	3.2508
433.30;	3.2595
433.74;	3.2679
434.17;	3.2758
434.61;	3.2834
435.04;	3.2905
435.48;	3.2972
435.91;	3.3034
436.35;	3.3093
436.78;	3.3147
437.22;	3.3197
437.66;	3.3243
438.09;	3.3285
438.53;	3.3322
438.96;	3.3354
439.40;	3.3383
439.83;	3.3407
440.27;	3.3427
440.70;	3.3442
441.14;	3.3453
441.57;	3.3459
442.01;	3.3462
442.45;	3.3459
442.88;	3.3453
443.32;	3.3442
443.75;	3.3426
444.19;	3.3406
444.62;	3.3382
445.06;	3.3354
445.49;	3.3321
445.93;	3.3284
446.36;	3.3242
446.80;	3.3196
447.24;	3.3146
447.67;	3.3092
448.11;	3.3033
448.54;	3.2970
448.98;	3.2903
449.41;	3.2832
449.85;	3.2757
450.28;	3.2677
450.72;	3.2594
451.15;	3.2506
451.59;	3.2414
452.03;	3.2319
452.46;	3.2219
452.90;	3.2116
453.33;	3.2008
453.77;	3.1897
454.20;	3.1782
454.64;	3.1663
455.07;	3.1541
455.51;	3.1415
455.94;	3.1285
456.38;	3.1152
456.82;	3.1015
457.25;	3.0875
457.69;	3.0732
458.12;	3.0585
458.56;	3.0435
458.99;	3.0281
459.43;	3.0125
459.86;	2.9965
460.30;	2.9802
460.73;	2.9636
461.17;	2.9468
461.61;	2.9296
462.04;	2.9121
462.48;	2.8944
462.91;	2.8764
463.35;	2.8582
463.78;	2.8397
464.22;	2.8209
464.65;	2.8019
465.09;	2.7827
465.52;	2.7632
465.96;	2.7435
466.39;	2.7236
466.83;	2.7035
467.27;	2.6832
467.70;	2.6626
468.14;	2.6419
468.57;	2.6210
469.01;	2.6000
469.44;	2.5788
469.88;	2.5574
470.31;	2.5358
470.75;	2.5141
471.18;	2.4923
471.62;	2.4703
472.06;	2.4482
472.49;	2.4260
472.93;	2.4036
473.36;	2.3812
473.80;	2.3587
474.23;	2.3360
474.67;	2.3133
475.10;	2.2905
475.54;	2.2677
475.97;	2.2447
476.41;	2.2217
476.85;	2.1987
477.28;	2.1756
477.72;	2.1525
478.15;	2.1293
478.59;	2.1061
479.02;	2.0829
479.46;	2.0597
479.89;	2.0365
480.33;	2.0132
480.76;	1.9900
481.20;	1.9668
481.64;	1.9436
482.07;	1.9204
482.51;	1.8973
482.94;	1.8742
483.38;	1.8511
483.81;	1.8281
484.25;	1.8051
484.68;	1.7822
485.12;	1.7594
485.55;	1.7366
485.99;	1.7139
486.43;	1.6912
486.86;	1.6687
487.30;	1.6462
487.73;	1.6238
488.17;	1.6015
488.60;	1.5794
489.04;	1.5573
489.47;	1.5353
489.91;	1.5135
490.34;	1.4917
490.78;	1.4701
491.22;	1.4486
491.65;	1.4273
492.09;	1.4061
492.52;	1.3850
492.96;	1.3640
493.39;	1.3432
493.83;	1.3226
494.26;	1.3020
494.70;	1.2817
495.13;	1.2615
495.57;	1.2414
496.01;	1.2216
496.44;	1.2018
496.88;	1.1823
497.31;	1.1629
497.75;	1.1437
498.18;	1.1247
498.62;	1.1058
499.05;	1.0871
499.49;	1.0686
499.92;	1.0503
500.36;	1.0322
500.80;	1.0142
501.23;	0.9964
501.67;	0.9789
502.10;	0.9615
502.54;	0.9443
502.97;	0.9272
503.41;	0.9104
503.84;	0.8938
504.28;	0.8774
504.71;	0.8611
505.15;	0.8451
505.59;	0.8292
506.02;	0.8136
506.46;	0.7981
506.89;	0.7829
507.33;	0.7678
507.76;	0.7529
508.20;	0.7383
508.63;	0.7238
509.07;	0.7095
509.50;	0.6954
509.94;	0.6816
510.38;	0.6679
510.81;	0.6544
511.25;	0.6411
511.68;	0.6280
512.12;	0.6151
512.55;	0.6024
512.99;	0.5899
513.42;	0.5775
513.86;	0.5654
514.29;	0.5535
514.73;	0.5417
515.17;	0.5301
515.60;	0.5188
516.04;	0.5076
516.47;	0.4966
516.91;	0.4857
517.34;	0.4751
517.78;	0.4646
518.21;	0.4544
518.65;	0.4443
519.08;	0.4344
519.52;	0.4246
519.96;	0.4150
520.39;	0.4057
520.83;	0.3964
521.26;	0.3874
521.70;	0.3785
522.13;	0.3698
522.57;	0.3612
523.00;	0.3528
523.44;	0.3446
523.87;	0.3365
524.31;	0.3286
524.75;	0.3209
525.18;	0.3133
525.62;	0.3059
526.05;	0.2986
526.49;	0.2914
526.92;	0.2844
527.36;	0.2776
527.79;	0.2709
528.23;	0.2643
528.66;	0.2579
529.10;	0.2516
529.54;	0.2455
529.97;	0.2395
530.41;	0.2336
530.84;	0.2279
531.28;	0.2222
531.71;	0.2168
532.15;	0.2114
532.58;	0.2062
533.02;	0.2010
533.45;	0.1960
533.89;	0.1912
534.33;	0.1864
534.76;	0.1818
535.20;	0.1772
535.63;	0.1728
536.07;	0.1685
536.50;	0.1643
536.94;	0.1602
537.37;	0.1562
537.81;	0.1523
538.24;	0.1485
538.68;	0.1448
539.12;	0.1412
539.55;	0.1377
539.99;	0.1343
540.42;	0.1309
540.86;	0.1277
541.29;	0.1246
541.73;	0.1215
542.16;	0.1185
542.60;	0.1156
543.03;	0.1128
543.47;	0.1101
543.91;	0.1074
544.34;	0.1049
544.78;	0.1024
545.21;	0.0999
545.65;	0.0976
546.08;	0.0953
546.52;	0.0931
546.95;	0.0909
547.39;	0.0889
547.82;	0.0868
548.26;	0.0849
548.70;	0.0830
549.13;	0.0812
549.57;	0.0794
550.00;	0.0777
550.44;	0.0760
550.87;	0.0744
551.31;	0.0729
551.74;	0.0714
552.18;	0.0700
552.61;	0.0686
553.05;	0.0672
553.49;	0.0660
553.92;	0.0647
554.36;	0.0635
554.79;	0.0624
555.23;	0.0613
555.66;	0.0602
556.10;	0.0592
556.53;	0.0582
556.97;	0.0573
557.40;	0.0564
557.84;	0.0555
558.28;	0.0547
558.71;	0.0539
559.15;	0.0532
559.58;	0.0524
560.02;	0.0518
560.45;	0.0511
560.89;	0.0505
561.32;	0.0499
561.76;	0.0493
562.19;	0.0488
562.63;	0.0483
563.07;	0.0478
563.50;	0.0474
563.94;	0.0470
564.37;	0.0466
564.81;	0.0462
565.24;	0.0459
565.68;	0.0456
566.11;	0.0453
566.55;	0.0450
566.98;	0.0448
567.42;	0.0446
567.86;	0.0444
568.29;	0.0442
568.73;	0.0440
569.16;	0.0439
569.60;	0.0437
570.03;	0.0436
570.47;	0.0435
570.90;	0.0435
571.34;	0.0434
571.77;	0.0434
572.21;	0.0434
572.65;	0.0434
573.08;	0.0434
573.52;	0.0434
573.95;	0.0434
574.39;	0.0435
574.82;	0.0436
575.26;	0.0436
575.69;	0.0437
576.13;	0.0438
576.56;	0.0440
577.00;	0.0441
577.44;	0.0442
577.87;	0.0444
578.31;	0.0445
578.74;	0.0447
579.18;	0.0449
579.61;	0.0451
580.05;	0.0453
580.48;	0.0455
580.92;	0.0457
581.35;	0.0460
581.79;	0.0462
582.23;	0.0465
582.66;	0.0467
583.10;	0.0470
583.53;	0.0473
583.97;	0.0475
584.40;	0.0478
584.84;	0.0481
585.27;	0.0484
585.71;	0.0487
586.14;	0.0491
586.58;	0.0494
587.02;	0.0497
587.45;	0.0500
587.89;	0.0504
588.32;	0.0507
588.76;	0.0511
589.19;	0.0514
589.63;	0.0518
590.06;	0.0522
590.50;	0.0525
590.93;	0.0529
591.37;	0.0533
591.81;	0.0537
592.24;	0.0541
592.68;	0.0545
593.11;	0.0549
593.55;	0.0553
593.98;	0.0557
594.42;	0.0561
594.85;	0.0565
595.29;	0.0569
595.72;	0.0573
596.16;	0.0578
596.60;	0.0582
597.03;	0.0586
597.47;	0.0591
597.90;	0.0595
598.34;	0.0599
598.77;	0.0604
599.21;	0.0608
599.64;	0.0613
600.08;	0.0617
600.51;	0.0622
600.95;	0.0626
601.39;	0.0631
601.82;	0.0636
602.26;	0.0640
602.69;	0.0645
603.13;	0.0649
603.56;	0.0654
604.00;	0.0659
604.43;	0.0664
604.87;	0.0668
605.30;	0.0673
605.74;	0.0678
606.18;	0.0683
606.61;	0.0687
607.05;	0.0692
607.48;	0.0697
607.92;	0.0702
608.35;	0.0707
608.79;	0.0711
609.22;	0.0716
609.66;	0.0721
610.09;	0.0726
610.53;	0.0731
610.97;	0.0736
611.40;	0.0741
611.84;	0.0746
612.27;	0.0751
612.71;	0.0756
613.14;	0.0760
613.58;	0.0765
614.01;	0.0770
614.45;	0.0775
614.88;	0.0780
615.32;	0.0785
615.76;	0.0790
616.19;	0.0795
616.63;	0.0800
617.06;	0.0805
617.50;	0.0810
617.93;	0.0815
618.37;	0.0820
618.80;	0.0825
619.24;	0.0830
619.67;	0.0835
620.11;	0.0840
620.55;	0.0844
620.98;	0.0849
621.42;	0.0854
621.85;	0.0859
622.29;	0.0864
622.72;	0.0869
623.16;	0.0874
623.59;	0.0879
624.03;	0.0884
624.46;	0.0888
624.90;	0.0893
625.34;	0.0898
625.77;	0.0903
626.21;	0.0908
626.64;	0.0913
627.08;	0.0917
627.51;	0.0922
627.95;	0.0927
628.38;	0.0932
628.82;	0.0936
629.25;	0.0941
629.69;	0.0946
630.13;	0.0950
630.56;	0.0955
631.00;	0.0960
631.43;	0.0964
631.87;	0.0969
632.30;	0.0974
632.74;	0.0978
633.17;	0.0983
633.61;	0.0987
634.04;	0.0992
634.48;	0.0996
634.92;	0.1001
635.35;	0.1005
635.79;	0.1010
636.22;	0.1014
636.66;	0.1019
637.09;	0.1023
637.53;	0.1027
637.96;	0.1032
638.40;	0.1036
638.83;	0.1040
639.27;	0.1044
639.71;	0.1049
640.14;	0.1053
640.58;	0.1057
641.01;	0.1061
641.45;	0.1065
641.88;	0.1069
642.32;	0.1073
642.75;	0.1077
643.19;	0.1081
643.62;	0.1085
644.06;	0.1089
644.50;	0.1093
644.93;	0.1097
645.37;	0.1101
645.80;	0.1104
646.24;	0.1108
646.67;	0.1112
647.11;	0.1116
647.54;	0.1119
647.98;	0.1123
648.41;	0.1126
648.85;	0.1130
649.29;	0.1134
649.72;	0.1137
650.16;	0.1140
650.59;	0.1144
651.03;	0.1147
651.46;	0.1150
651.90;	0.1154
652.33;	0.1157
652.77;	0.1160
653.20;	0.1163
653.64;	0.1166
654.08;	0.1170
654.51;	0.1173
654.95;	0.1176
655.38;	0.1179
655.82;	0.1181
656.25;	0.1184
656.69;	0.1187
657.12;	0.1190
657.56;	0.1193
657.99;	0.1195
658.43;	0.1198
658.87;	0.1201
659.30;	0.1203
659.74;	0.1206
660.17;	0.1208
660.61;	0.1210
661.04;	0.1213
661.48;	0.1215
661.91;	0.1217
662.35;	0.1220
662.78;	0.1222
663.22;	0.1224
663.66;	0.1226
664.09;	0.1228
664.53;	0.1230
664.96;	0.1232
665.40;	0.1234
665.83;	0.1236
666.27;	0.1238
666.70;	0.1239
667.14;	0.1241
667.57;	0.1243
668.01;	0.1244
668.45;	0.1246
668.88;	0.1247
669.32;	0.1249
669.75;	0.1250
670.19;	0.1251
670.62;	0.1253
671.06;	0.1254
671.49;	0.1255
671.93;	0.1256
672.36;	0.1257
672.80;	0.1258
673.24;	0.1259
673.67;	0.1260
674.11;	0.1261
674.54;	0.1262
674.98;	0.1263
675.41;	0.1263
675.85;	0.1264
676.28;	0.1265
676.72;	0.1265
677.15;	0.1266
677.59;	0.1266
678.03;	0.1267
678.46;	0.1267
678.90;	0.1267
679.33;	0.1267
679.77;	0.1268
680.20;	0.1268
680.64;	0.1268
681.07;	0.1268
681.51;	0.1268
681.94;	0.1268
682.38;	0.1268
682.82;	0.1267
683.25;	0.1267
683.69;	0.1267
684.12;	0.1267
684.56;	0.1266
684.99;	0.1266
685.43;	0.1265
685.86;	0.1265
686.30;	0.1264
686.73;	0.1263
687.17;	0.1263
687.61;	0.1262
688.04;	0.1261
688.48;	0.1260
688.91;	0.1259
689.35;	0.1258
689.78;	0.1257
690.22;	0.1256
690.65;	0.1255
691.09;	0.1254
691.52;	0.1252
691.96;	0.1251
692.39;	0.1250
692.83;	0.1248
693.27;	0.1247
693.70;	0.1245
694.14;	0.1244
694.57;	0.1242
695.01;	0.1240
695.44;	0.1239
695.88;	0.1237
696.31;	0.1235
696.75;	0.1233
697.18;	0.1231
697.62;	0.1229
698.06;	0.1227
698.49;	0.1225
698.93;	0.1223
699.36;	0.1221
699.80;	0.1219
700.23;	0.1217
700.67;	0.1214
701.10;	0.1212
701.54;	0.1210
701.97;	0.1207
702.41;	0.1205
702.85;	0.1202
703.28;	0.1200
703.72;	0.1197
704.15;	0.1194
704.59;	0.1192
705.02;	0.1189
705.46;	0.1186
705.89;	0.1183
706.33;	0.1180
706.76;	0.1178
707.20;	0.1175
707.64;	0.1172
708.07;	0.1168
708.51;	0.1165
708.94;	0.1162
709.38;	0.1159
709.81;	0.1156
710.25;	0.1153
710.68;	0.1149
711.12;	0.1146
711.55;	0.1143
711.99;	0.1139
712.43;	0.1136
712.86;	0.1132
713.30;	0.1129
713.73;	0.1125
714.17;	0.1122
714.60;	0.1118
715.04;	0.1114
715.47;	0.1111
715.91;	0.1107
716.34;	0.1103
716.78;	0.1099
717.22;	0.1096
717.65;	0.1092
718.09;	0.1088
718.52;	0.1084
718.96;	0.1080
719.39;	0.1076
719.83;	0.1072
720.26;	0.1068
720.70;	0.1064
721.13;	0.1060
721.57;	0.1055
722.01;	0.1051
722.44;	0.1047
722.88;	0.1043
723.31;	0.1039
723.75;	0.1034
724.18;	0.1030
724.62;	0.1026
725.05;	0.1021
725.49;	0.1017
725.92;	0.1013
726.36;	0.1008
726.80;	0.1004
727.23;	0.0999
727.67;	0.0995
728.10;	0.0990
728.54;	0.0986
728.97;	0.0981
729.41;	0.0977
729.84;	0.0972
730.28;	0.0967
730.71;	0.0963
731.15;	0.0958
731.59;	0.0953
732.02;	0.0949
732.46;	0.0944
732.89;	0.0939
733.33;	0.0935
733.76;	0.0930
734.20;	0.0925
734.63;	0.0920
735.07;	0.0916
735.50;	0.0911
735.94;	0.0906
736.38;	0.0901
736.81;	0.0896
737.25;	0.0891
737.68;	0.0886
738.12;	0.0882
738.55;	0.0877
738.99;	0.0872
739.42;	0.0867
739.86;	0.0862
740.29;	0.0857
740.73;	0.0852
741.17;	0.0847
741.60;	0.0842
742.04;	0.0837
742.47;	0.0832
742.91;	0.0827
743.34;	0.0822
743.78;	0.0817
744.21;	0.0812
744.65;	0.0807
745.08;	0.0802
745.52;	0.0797
745.96;	0.0792
746.39;	0.0787
746.83;	0.0782
747.26;	0.0777
747.70;	0.0772
748.13;	0.0767
748.57;	0.0762
749.00;	0.0757
749.44;	0.0752
749.87;	0.0747
750.31;	0.0743
750.75;	0.0738
751.18;	0.0733
751.62;	0.0728
752.05;	0.0723
752.49;	0.0718
752.92;	0.0713
753.36;	0.0708
753.79;	0.0703
754.23;	0.0698
754.66;	0.0693
755.10;	0.0688
755.54;	0.0683
755.97;	0.0678
756.41;	0.0673
756.84;	0.0668
757.28;	0.0663
757.71;	0.0658
758.15;	0.0653
758.58;	0.0648
759.02;	0.0644
759.45;	0.0639
759.89;	0.0634
760.33;	0.0629
760.76;	0.0624
761.20;	0.0619
761.63;	0.0615
762.07;	0.0610
762.50;	0.0605
762.94;	0.0600
763.37;	0.0595
763.81;	0.0591
764.24;	0.0586
764.68;	0.0581
765.12;	0.0577
765.55;	0.0572
765.99;	0.0567
766.42;	0.0562
766.86;	0.0558
767.29;	0.0553
767.73;	0.0549
768.16;	0.0544
768.60;	0.0539
769.03;	0.0535
769.47;	0.0530
769.91;	0.0526
770.34;	0.0521
770.78;	0.0517
771.21;	0.0512
771.65;	0.0508
772.08;	0.0503
772.52;	0.0499
772.95;	0.0494
773.39;	0.0490
773.82;	0.0486
774.26;	0.0481
774.70;	0.0477
775.13;	0.0473
775.57;	0.0468
776.00;	0.0464
776.44;	0.0460
776.87;	0.0455
777.31;	0.0451
777.74;	0.0447
778.18;	0.0443
778.61;	0.0439
779.05;	0.0435
779.49;	0.0430
779.92;	0.0426
780.36;	0.0422
780.79;	0.0418
781.23;	0.0414
781.66;	0.0410
782.10;	0.0406
782.53;	0.0402
782.97;	0.0398
783.40;	0.0394
783.84;	0.0390
784.28;	0.0386
784.71;	0.0383
785.15;	0.0379
785.58;	0.0375
786.02;	0.0371
786.45;	0.0367
786.89;	0.0364
787.32;	0.0360
787.76;	0.0356
788.19;	0.0353
788.63;	0.0349
789.07;	0.0345
789.50;	0.0342
789.94;	0.0338
790.37;	0.0335
790.81;	0.0331
791.24;	0.0327
791.68;	0.0324
792.11;	0.0321
792.55;	0.0317
792.98;	0.0314
793.42;	0.0310
793.86;	0.0307
794.29;	0.0304
794.73;	0.0300
795.16;	0.0297
795.60;	0.0294
796.03;	0.0290
796.47;	0.0287
796.90;	0.0284
797.34;	0.0281
797.77;	0.0278
798.21;	0.0274
798.65;	0.0271
799.08;	0.0268
799.52;	0.0265
799.95;	0.0262
800.39;	0.0259
800.82;	0.0256
801.26;	0.0253
801.69;	0.0250
802.13;	0.0247
802.56;	0.0244
803.00;	0.0242
