wavelength, nm;	absorption
382.00;	0.7996
382.36;	0.8114
382.71;	0.8234
383.07;	0.8355
383.42;	0.8476
383.78;	0.8599
384.13;	0.8723
384.49;	0.8848
384.84;	0.8973
385.20;	0.9100
385.55;	0.9228
385.91;	0.9357
386.27;	0.9486
386.62;	0.9617
386.98;	0.9748
387.33;	0.9881
387.69;	1.0014
388.04;	1.0149
388.40;	1.0284
388.75;	1.0420
389.11;	1.0557
389.46;	1.0695
389.82;	1.0834
390.18;	1.0973
390.53;	1.1114
390.89;	1.1255
391.24;	1.1397
391.60;	1.1540
391.95;	1.1683
392.31;	1.1828
392.66;	1.1973
393.02;	1.2118
393.38;	1.2265
393.73;	1.2412
394.09;	1.2560
394.44;	1.2708
394.80;	1.2857
395.15;	1.3007
395.51;	1.3157
395.86;	1.3308
396.22;	1.3460
396.57;	1.3612
396.93;	1.3764
397.29;	1.3917
397.64;	1.4071
398.00;	1.4225
398.35;	1.4379
398.71;	1.4534
399.06;	1.4689
399.42;	1.4844
399.77;	1.5000
400.13;	1.5156
400.48;	1.5312
400.84;	1.5469
401.20;	1.5626
401.55;	1.5783
401.91;	1.5940
402.26;	1.6097
402.62;	1.6255
402.97;	1.6413
403.33;	1.6570
403.68;	1.6728
404.04;	1.6886
404.39;	1.7044
404.75;	1.7202
405.11;	1.7359
405.46;	1.7517
405.82;	1.7674
406.17;	1.7832
406.53;	1.7989
406.88;	1.8146
407.24;	1.8303
407.59;	1.8459
407.95;	1.8615
408.30;	1.8771
408.66;	1.8927
409.02;	1.9082
409.37;	1.9237
409.73;	1.9391
410.08;	1.9545
410.44;	1.9698
410.79;	1.9851
411.15;	2.0003
411.50;	2.0155
411.86;	2.0306
412.21;	2.0456
412.57;	2.0606
412.93;	2.0755
413.28;	2.0903
413.64;	2.1050
413.99;	2.1197
414.35;	2.1343
414.70;	2.1488
415.06;	2.1632
415.41;	2.1775
415.77;	2.1917
416.12;	2.2058
416.48;	2.2198
416.84;	2.2337
417.19;	2.2474
417.55;	2.2611
417.90;	2.2747
418.26;	2.2881
418.61;	2.3014
418.97;	2.3146
419.32;	2.3277
419.68;	2.3406
420.04;	2.3534
420.39;	2.3661
420.75;	2.3786
421.10;	2.3910
421.46;	2.4032
421.81;	2.4153
422.17;	2.4272
422.52;	2.4390
422.88;	2.4506
423.23;	2.4620
423.59;	2.4733
423.95;	2.4845
424.30;	2.4954
424.66;	2.5062
425.01;	2.5168
425.37;	2.5273
425.72;	2.5376
426.08;	2.5476
426.43;	2.5575
426.79;	2.5672
427.14;	2.5768
427.50;	2.5861
427.86;	2.5952
428.21;	2.6042
428.57;	2.6129
428.92;	2.6215
429.28;	2.6298
429.63;	2.6380
429.99;	2.6459
430.34;	2.6536
430.70;	2.6611
431.05;	2.6684
431.41;	2.6755
431.77;	2.6824
432.12;	2.6891
432.48;	2.6955
432.83;	2.7017
433.19;	2.7077
433.54;	2.7135
433.90;	2.7190
434.25;	2.7243
434.61;	2.7294
434.96;	2.7343
435.32;	2.7389
435.68;	2.7433
436.03;	2.7475
436.39;	2.7514
436.74;	2.7551
437.10;	2.7586
437.45;	2.7618
437.81;	2.7648
438.16;	2.7675
438.52;	2.7700
438.88;	2.7723
439.23;	2.7743
439.59;	2.7761
439.94;	2.7776
440.30;	2.7789
440.65;	2.7800
441.01;	2.7808
441.36;	2.7814
441.72;	2.7817
442.07;	2.7818
442.43;	2.7816
442.79;	2.7812
443.14;	2.7806
443.50;	2.7797
443.85;	2.7786
444.21;	2.7772
444.56;	2.7756
444.92;	2.7737
445.27;	2.7716
445.63;	2.7693
445.98;	2.7667
446.34;	2.7639
446.70;	2.7609
447.05;	2.7576
447.41;	2.7540
447.76;	2.7503
448.12;	2.7463
448.47;	2.7421
448.83;	2.7376
449.18;	2.7329
449.54;	2.7280
449.89;	2.7228
450.25;	2.7174
450.61;	2.7118
450.96;	2.7060
451.32;	2.6999
451.67;	2.6937
452.03;	2.6872
452.38;	2.6804
452.74;	2.6735
453.09;	2.6664
453.45;	2.6590
453.80;	2.6514
454.16;	2.6437
454.52;	2.6357
454.87;	2.6275
455.23;	2.6191
455.58;	2.6105
455.94;	2.6017
456.29;	2.5927
456.65;	2.5835
457.00;	2.5741
457.36;	2.5646
457.71;	2.5548
458.07;	2.5449
458.43;	2.5348
458.78;	2.5245
459.14;	2.5140
459.49;	2.5033
459.85;	2.4925
460.20;	2.4815
460.56;	2.4704
460.91;	2.4590
461.27;	2.4476
461.62;	2.4359
461.98;	2.4241
462.34;	2.4122
462.69;	2.4001
463.05;	2.3878
463.40;	2.3754
463.76;	2.3629
464.11;	2.3502
464.47;	2.3374
464.82;	2.3245
465.18;	2.3114
465.54;	2.2982
465.89;	2.2849
466.25;	2.2714
466.60;	2.2579
466.96;	2.2442
467.31;	2.2304
467.67;	2.2166
468.02;	2.2026
468.38;	2.1885
468.73;	2.1743
469.09;	2.1600
469.45;	2.1456
469.80;	2.1311
470.16;	2.1166
470.51;	2.1020
470.87;	2.0872
471.22;	2.0724
471.58;	2.0576
471.93;	2.0426
472.29;	2.0276
472.64;	2.0126
473.00;	1.9974
473.36;	1.9823
473.71;	1.9670
474.07;	1.9517
474.42;	1.9364
474.78;	1.9210
475.13;	1.9056
475.49;	1.8901
475.84;	1.8746
476.20;	1.8591
476.55;	1.8435
476.91;	1.8279
477.27;	1.8123
477.62;	1.7967
477.98;	1.7810
478.33;	1.7654
478.69;	1.7497
479.04;	1.7340
479.40;	1.7183
479.75;	1.7026
480.11;	1.6869
480.46;	1.6712
480.82;	1.6555
481.18;	1.6398
481.53;	1.6242
481.89;	1.6085
482.24;	1.5928
482.60;	1.5772
482.95;	1.5616
483.31;	1.5460
483.66;	1.5305
484.02;	1.5149
484.38;	1.4994
484.73;	1.4840
485.09;	1.4685
485.44;	1.4531
485.80;	1.4378
486.15;	1.4225
486.51;	1.4072
486.86;	1.3920
487.22;	1.3768
487.57;	1.3617
487.93;	1.3466
488.29;	1.3316
488.64;	1.3167
489.00;	1.3018
489.35;	1.2869
489.71;	1.2722
490.06;	1.2575
490.42;	1.2428
490.77;	1.2283
491.13;	1.2138
491.48;	1.1993
491.84;	1.1850
492.20;	1.1707
492.55;	1.1565
492.91;	1.1424
493.26;	1.1284
493.62;	1.1144
493.97;	1.1005
494.33;	1.0868
494.68;	1.0731
495.04;	1.0594
495.39;	1.0459
495.75;	1.0325
496.11;	1.0191
496.46;	1.0059
496.82;	0.9927
497.17;	0.9797
497.53;	0.9667
497.88;	0.9538
498.24;	0.9411
498.59;	0.9284
498.95;	0.9158
499.30;	0.9034
499.66;	0.8910
500.02;	0.8787
500.37;	0.8666
500.73;	0.8545
501.08;	0.8425
501.44;	0.8307
501.79;	0.8189
502.15;	0.8073
502.50;	0.7958
502.86;	0.7843
503.21;	0.7730
503.57;	0.7618
503.93;	0.7507
504.28;	0.7397
504.64;	0.7288
504.99;	0.7181
505.35;	0.7074
505.70;	0.6969
506.06;	0.6864
506.41;	0.6761
506.77;	0.6659
507.12;	0.6558
507.48;	0.6458
507.84;	0.6359
508.19;	0.6261
508.55;	0.6164
508.90;	0.6069
509.26;	0.5974
509.61;	0.5881
509.97;	0.5789
510.32;	0.5698
510.68;	0.5608
511.04;	0.5519
511.39;	0.5431
511.75;	0.5344
512.10;	0.5259
512.46;	0.5174
512.81;	0.5091
513.17;	0.5009
513.52;	0.4927
513.88;	0.4847
514.23;	0.4768
514.59;	0.4690
514.95;	0.4613
515.30;	0.4537
515.66;	0.4463
516.01;	0.4389
516.37;	0.4316
516.72;	0.4244
517.08;	0.4174
517.43;	0.4104
517.79;	0.4036
518.14;	0.3968
518.50;	0.3902
518.86;	0.3836
519.21;	0.3772
519.57;	0.3708
519.92;	0.3646
520.28;	0.3584
520.63;	0.3524
520.99;	0.3464
521.34;	0.3406
521.70;	0.3348
522.05;	0.3291
522.41;	0.3236
522.77;	0.3181
523.12;	0.3127
523.48;	0.3074
523.83;	0.3022
524.19;	0.2971
524.54;	0.2921
524.90;	0.2871
525.25;	0.2823
525.61;	0.2775
525.96;	0.2729
526.32;	0.2683
526.68;	0.2638
527.03;	0.2594
527.39;	0.2550
527.74;	0.2508
528.10;	0.2466
528.45;	0.2425
528.81;	0.2385
529.16;	0.2346
529.52;	0.2308
529.88;	0.2270
530.23;	0.2233
530.59;	0.2197
530.94;	0.2161
531.30;	0.2127
531.65;	0.2093
532.01;	0.2060
532.36;	0.2027
532.72;	0.1995
533.07;	0.1964
533.43;	0.1934
533.79;	0.1904
534.14;	0.1875
534.50;	0.1847
534.85;	0.1819
535.21;	0.1792
535.56;	0.1766
535.92;	0.1740
536.27;	0.1715
536.63;	0.1691
536.98;	0.1667
537.34;	0.1644
537.70;	0.1621
538.05;	0.1599
538.41;	0.1578
538.76;	0.1557
539.12;	0.1536
539.47;	0.1517
539.83;	0.1497
540.18;	0.1479
540.54;	0.1461
540.89;	0.1443
541.25;	0.1426
541.61;	0.1409
541.96;	0.1393
542.32;	0.1378
542.67;	0.1363
543.03;	0.1348
543.38;	0.1334
543.74;	0.1321
544.09;	0.1307
544.45;	0.1295
544.80;	0.1282
545.16;	0.1271
545.52;	0.1259
545.87;	0.1248
546.23;	0.1238
546.58;	0.1228
546.94;	0.1218
547.29;	0.1209
547.65;	0.1200
548.00;	0.1192
548.36;	0.1184
548.71;	0.1176
549.07;	0.1169
549.43;	0.1162
549.78;	0.1155
550.14;	0.1149
550.49;	0.1143
550.85;	0.1138
551.20;	0.1132
551.56;	0.1128
551.91;	0.1123
552.27;	0.1119
552.62;	0.1115
552.98;	0.1111
553.34;	0.1108
553.69;	0.1105
554.05;	0.1103
554.40;	0.1100
554.76;	0.1098
555.11;	0.1097
555.47;	0.1095
555.82;	0.1094
556.18;	0.1093
556.54;	0.1093
556.89;	0.1092
557.25;	0.1092
557.60;	0.1092
557.96;	0.1093
558.31;	0.1093
558.67;	0.1094
559.02;	0.1095
559.38;	0.1097
559.73;	0.1098
560.09;	0.1100
560.45;	0.1102
560.80;	0.1104
561.16;	0.1107
561.51;	0.1110
561.87;	0.1112
562.22;	0.1116
562.58;	0.1119
562.93;	0.1122
563.29;	0.1126
563.64;	0.1130
564.00;	0.1134
564.36;	0.1138
564.71;	0.1143
565.07;	0.1148
565.42;	0.1152
565.78;	0.1157
566.13;	0.1163
566.49;	0.1168
566.84;	0.1173
567.20;	0.1179
567.55;	0.1185
567.91;	0.1191
568.27;	0.1197
568.62;	0.1203
568.98;	0.1210
569.33;	0.1216
569.69;	0.1223
570.04;	0.1230
570.40;	0.1237
570.75;	0.1244
571.11;	0.1252
571.46;	0.1259
571.82;	0.1267
572.18;	0.1274
572.53;	0.1282
572.89;	0.1290
573.24;	0.1298
573.60;	0.1307
573.95;	0.1315
574.31;	0.1323
574.66;	0.1332
575.02;	0.1341
575.38;	0.1349
575.73;	0.1358
576.09;	0.1367
576.44;	0.1377
576.80;	0.1386
577.15;	0.1395
577.51;	0.1405
577.86;	0.1414
578.22;	0.1424
578.57;	0.1434
578.93;	0.1443
579.29;	0.1453
579.64;	0.1463
580.00;	0.1474
580.35;	0.1484
580.71;	0.1494
581.06;	0.1505
581.42;	0.1515
581.77;	0.1526
582.13;	0.1536
582.48;	0.1547
582.84;	0.1558
583.20;	0.1569
583.55;	0.1580
583.91;	0.1591
584.26;	0.1602
584.62;	0.1613
584.97;	0.1625
585.33;	0.1636
585.68;	0.1647
586.04;	0.1659
586.39;	0.1671
586.75;	0.1682
587.11;	0.1694
587.46;	0.1706
587.82;	0.1718
588.17;	0.1730
588.53;	0.1742
588.88;	0.1754
589.24;	0.1766
589.59;	0.1778
589.95;	0.1790
590.30;	0.1803
590.66;	0.1815
591.02;	0.1827
591.37;	0.1840
591.73;	0.1852
592.08;	0.1865
592.44;	0.1878
592.79;	0.1890
593.15;	0.1903
593.50;	0.1916
593.86;	0.1929
594.21;	0.1942
594.57;	0.1955
594.93;	0.1968
595.28;	0.1981
595.64;	0.1994
595.99;	0.2007
596.35;	0.2020
596.70;	0.2034
597.06;	0.2047
597.41;	0.2060
597.77;	0.2073
598.12;	0.2087
598.48;	0.2100
598.84;	0.2114
599.19;	0.2127
599.55;	0.2141
599.90;	0.2155
600.26;	0.2168
600.61;	0.2182
600.97;	0.2195
601.32;	0.2209
601.68;	0.2223
602.04;	0.2237
602.39;	0.2251
602.75;	0.2264
603.10;	0.2278
603.46;	0.2292
603.81;	0.2306
604.17;	0.2320
604.52;	0.2334
604.88;	0.2348
605.23;	0.2362
605.59;	0.2376
605.95;	0.2390
606.30;	0.2404
606.66;	0.2419
607.01;	0.2433
607.37;	0.2447
607.72;	0.2461
608.08;	0.2475
608.43;	0.2489
608.79;	0.2504
609.14;	0.2518
609.50;	0.2532
609.86;	0.2546
610.21;	0.2561
610.57;	0.2575
610.92;	0.2589
611.28;	0.2604
611.63;	0.2618
611.99;	0.2632
612.34;	0.2647
612.70;	0.2661
613.05;	0.2675
613.41;	0.2690
613.77;	0.2704
614.12;	0.2718
614.48;	0.2733
614.83;	0.2747
615.19;	0.2761
615.54;	0.2776
615.90;	0.2790
616.25;	0.2804
616.61;	0.2819
616.96;	0.2833
617.32;	0.2847
617.68;	0.2862
618.03;	0.2876
618.39;	0.2890
618.74;	0.2905
619.10;	0.2919
619.45;	0.2933
619.81;	0.2947
620.16;	0.2962
620.52;	0.2976
620.88;	0.2990
621.23;	0.3004
621.59;	0.3018
621.94;	0.3033
622.30;	0.3047
622.65;	0.3061
623.01;	0.3075
623.36;	0.3089
623.72;	0.3103
624.07;	0.3117
624.43;	0.3131
624.79;	0.3145
625.14;	0.3159
625.50;	0.3173
625.85;	0.3187
626.21;	0.3201
626.56;	0.3215
626.92;	0.3229
627.27;	0.3243
627.63;	0.3256
627.98;	0.3270
628.34;	0.3284
628.70;	0.3297
629.05;	0.3311
629.41;	0.3325
629.76;	0.3338
630.12;	0.3352
630.47;	0.3365
630.83;	0.3379
631.18;	0.3392
631.54;	0.3405
631.89;	0.3419
632.25;	0.3432
632.61;	0.3445
632.96;	0.3458
633.32;	0.3471
633.67;	0.3485
634.03;	0.3498
634.38;	0.3511
634.74;	0.3523
635.09;	0.3536
635.45;	0.3549
635.80;	0.3562
636.16;	0.3575
636.52;	0.3587
636.87;	0.3600
637.23;	0.3612
637.58;	0.3625
637.94;	0.3637
638.29;	0.3650
638.65;	0.3662
639.00;	0.3674
639.36;	0.3687
639.71;	0.3699
640.07;	0.3711
640.43;	0.3723
640.78;	0.3735
641.14;	0.3746
641.49;	0.3758
641.85;	0.3770
642.20;	0.3782
642.56;	0.3793
642.91;	0.3805
643.27;	0.3816
643.62;	0.3828
643.98;	0.3839
644.34;	0.3850
644.69;	0.3861
645.05;	0.3872
645.40;	0.3883
645.76;	0.3894
646.11;	0.3905
646.47;	0.3916
646.82;	0.3926
647.18;	0.3937
647.54;	0.3947
647.89;	0.3958
648.25;	0.3968
648.60;	0.3978
648.96;	0.3989
649.31;	0.3999
649.67;	0.4009
650.02;	0.4019
650.38;	0.4028
650.73;	0.4038
651.09;	0.4048
651.45;	0.4057
651.80;	0.4067
652.16;	0.4076
652.51;	0.4085
652.87;	0.4095
653.22;	0.4104
653.58;	0.4113
653.93;	0.4121
654.29;	0.4130
654.64;	0.4139
655.00;	0.4148
655.36;	0.4156
655.71;	0.4164
656.07;	0.4173
656.42;	0.4181
656.78;	0.4189
657.13;	0.4197
657.49;	0.4205
657.84;	0.4213
658.20;	0.4220
658.55;	0.4228
658.91;	0.4235
659.27;	0.4243
659.62;	0.4250
659.98;	0.4257
660.33;	0.4264
660.69;	0.4271
661.04;	0.4278
661.40;	0.4285
661.75;	0.4291
662.11;	0.4298
662.46;	0.4304
662.82;	0.4310
663.18;	0.4316
663.53;	0.4322
663.89;	0.4328
664.24;	0.4334
664.60;	0.4340
664.95;	0.4345
665.31;	0.4351
665.66;	0.4356
666.02;	0.4361
666.38;	0.4367
666.73;	0.4372
667.09;	0.4376
667.44;	0.4381
667.80;	0.4386
668.15;	0.4390
668.51;	0.4395
668.86;	0.4399
669.22;	0.4403
669.57;	0.4407
669.93;	0.4411
670.29;	0.4415
670.64;	0.4419
671.00;	0.4422
671.35;	0.4426
671.71;	0.4429
672.06;	0.4432
672.42;	0.4435
672.77;	0.4438
673.13;	0.4441
673.48;	0.4444
673.84;	0.4446
674.20;	0.4449
674.55;	0.4451
674.91;	0.4453
675.26;	0.4456
675.62;	0.4457
675.97;	0.4459
676.33;	0.4461
676.68;	0.4463
677.04;	0.4464
677.39;	0.4465
677.75;	0.4467
678.11;	0.4468
678.46;	0.4469
678.82;	0.4470
679.17;	0.4470
679.53;	0.4471
679.88;	0.4471
680.24;	0.4472
680.59;	0.4472
680.95;	0.4472
681.30;	0.4472
681.66;	0.4472
682.02;	0.4471
682.37;	0.4471
682.73;	0.4470
683.08;	0.4470
683.44;	0.4469
683.79;	0.4468
684.15;	0.4467
684.50;	0.4466
684.86;	0.4464
685.21;	0.4463
685.57;	0.4461
685.93;	0.4460
686.28;	0.4458
686.64;	0.4456
686.99;	0.4454
687.35;	0.4452
687.70;	0.4450
688.06;	0.4447
688.41;	0.4445
688.77;	0.4442
689.12;	0.4439
689.48;	0.4436
689.84;	0.4433
690.19;	0.4430
690.55;	0.4427
690.90;	0.4423
691.26;	0.4420
691.61;	0.4416
691.97;	0.4412
692.32;	0.4408
692.68;	0.4404
693.04;	0.4400
693.39;	0.4396
693.75;	0.4392
694.10;	0.4387
694.46;	0.4383
694.81;	0.4378
695.17;	0.4373
695.52;	0.4368
695.88;	0.4363
696.23;	0.4358
696.59;	0.4352
696.95;	0.4347
697.30;	0.4341
697.66;	0.4336
698.01;	0.4330
698.37;	0.4324
698.72;	0.4318
699.08;	0.4312
699.43;	0.4306
699.79;	0.4299
700.14;	0.4293
700.50;	0.4286
700.86;	0.4280
701.21;	0.4273
701.57;	0.4266
701.92;	0.4259
702.28;	0.4252
702.63;	0.4245
702.99;	0.4237
703.34;	0.4230
703.70;	0.4222
704.05;	0.4215
704.41;	0.4207
704.77;	0.4199
705.12;	0.4191
705.48;	0.4183
705.83;	0.4175
706.19;	0.4167
706.54;	0.4158
706.90;	0.4150
707.25;	0.4141
707.61;	0.4133
707.96;	0.4124
708.32;	0.4115
708.68;	0.4106
709.03;	0.4097
709.39;	0.4088
709.74;	0.4079
710.10;	0.4069
710.45;	0.4060
710.81;	0.4050
711.16;	0.4041
711.52;	0.4031
711.88;	0.4021
712.23;	0.4012
712.59;	0.4002
712.94;	0.3992
713.30;	0.3981
713.65;	0.3971
714.01;	0.3961
714.36;	0.3950
714.72;	0.3940
715.07;	0.3929
715.43;	0.3919
715.79;	0.3908
716.14;	0.3897
716.50;	0.3886
716.85;	0.3875
717.21;	0.3864
717.56;	0.3853
717.92;	0.3842
718.27;	0.3831
718.63;	0.3819
718.98;	0.3808
719.34;	0.3797
719.70;	0.3785
720.05;	0.3773
720.41;	0.3762
720.76;	0.3750
721.12;	0.3738
721.47;	0.3726
721.83;	0.3714
722.18;	0.3702
722.54;	0.3690
722.89;	0.3678
723.25;	0.3666
723.61;	0.3653
723.96;	0.3641
724.32;	0.3628
724.67;	0.3616
725.03;	0.3603
725.38;	0.3591
725.74;	0.3578
726.09;	0.3566
726.45;	0.3553
726.80;	0.3540
727.16;	0.3527
727.52;	0.3514
727.87;	0.3501
728.23;	0.3488
728.58;	0.3475
728.94;	0.3462
729.29;	0.3449
729.65;	0.3436
730.00;	0.3422
730.36;	0.3409
730.71;	0.3396
731.07;	0.3382
731.43;	0.3369
731.78;	0.3355
732.14;	0.3342
732.49;	0.3328
732.85;	0.3315
733.20;	0.3301
733.56;	0.3287
733.91;	0.3274
734.27;	0.3260
734.62;	0.3246
734.98;	0.3232
735.34;	0.3219
735.69;	0.3205
736.05;	0.3191
736.40;	0.3177
736.76;	0.3163
737.11;	0.3149
737.47;	0.3135
737.82;	0.3121
738.18;	0.3107
738.54;	0.3093
738.89;	0.3079
739.25;	0.3065
739.60;	0.3050
739.96;	0.3036
740.31;	0.3022
740.67;	0.3008
741.02;	0.2994
741.38;	0.2979
741.73;	0.2965
742.09;	0.2951
742.45;	0.2937
742.80;	0.2922
743.16;	0.2908
743.51;	0.2894
743.87;	0.2879
744.22;	0.2865
744.58;	0.2851
744.93;	0.2836
745.29;	0.2822
745.64;	0.2808
746.00;	0.2793
746.36;	0.2779
746.71;	0.2765
747.07;	0.2750
747.42;	0.2736
747.78;	0.2721
748.13;	0.2707
748.49;	0.2693
748.84;	0.2678
749.20;	0.2664
749.55;	0.2649
749.91;	0.2635
750.27;	0.2621
750.62;	0.2606
750.98;	0.2592
751.33;	0.2578
751.69;	0.2563
752.04;	0.2549
752.40;	0.2535
752.75;	0.2520
753.11;	0.2506
753.46;	0.2492
753.82;	0.2477
754.18;	0.2463
754.53;	0.2449
754.89;	0.2434
755.24;	0.2420
755.60;	0.2406
755.95;	0.2392
756.31;	0.2378
756.66;	0.2363
757.02;	0.2349
757.38;	0.2335
757.73;	0.2321
758.09;	0.2307
758.44;	0.2293
758.80;	0.2279
759.15;	0.2265
759.51;	0.2251
759.86;	0.2237
760.22;	0.2223
760.57;	0.2209
760.93;	0.2195
761.29;	0.2181
761.64;	0.2167
762.00;	0.2153
762.35;	0.2140
762.71;	0.2126
763.06;	0.2112
763.42;	0.2098
763.77;	0.2085
764.13;	0.2071
764.48;	0.2058
764.84;	0.2044
765.20;	0.2030
765.55;	0.2017
765.91;	0.2003
766.26;	0.1990
766.62;	0.1977
766.97;	0.1963
767.33;	0.1950
767.68;	0.1936
768.04;	0.1923
768.39;	0.1910
768.75;	0.1897
769.11;	0.1884
769.46;	0.1870
769.82;	0.1857
770.17;	0.1844
770.53;	0.1831
770.88;	0.1818
771.24;	0.1805
771.59;	0.1793
771.95;	0.1780
772.30;	0.1767
772.66;	0.1754
773.02;	0.1741
773.37;	0.1729
773.73;	0.1716
774.08;	0.1704
774.44;	0.1691
774.79;	0.1679
775.15;	0.1666
775.50;	0.1654
775.86;	0.1641
776.21;	0.1629
776.57;	0.1617
776.93;	0.1605
777.28;	0.1592
777.64;	0.1580
777.99;	0.1568
778.35;	0.1556
778.70;	0.1544
779.06;	0.1532
779.41;	0.1520
779.77;	0.1509
780.12;	0.1497
780.48;	0.1485
780.84;	0.1473
781.19;	0.1462
781.55;	0.1450
781.90;	0.1439
782.26;	0.1427
782.61;	0.1416
782.97;	0.1405
783.32;	0.1393
783.68;	0.1382
784.04;	0.1371
784.39;	0.1360
784.75;	0.1348
785.10;	0.1337
785.46;	0.1326
785.81;	0.1315
786.17;	0.1305
786.52;	0.1294
786.88;	0.1283
787.23;	0.1272
787.59;	0.1262
787.95;	0.1251
788.30;	0.1240
788.66;	0.1230
789.01;	0.1219
789.37;	0.1209
789.72;	0.1199
790.08;	0.1188
790.43;	0.1178
790.79;	0.1168
791.14;	0.1158
791.50;	0.1148
791.86;	0.1138
792.21;	0.1128
792.57;	0.1118
792.92;	0.1108
793.28;	0.1098
793.63;	0.1088
793.99;	0.1079
794.34;	0.1069
794.70;	0.1060
795.05;	0.1050
795.41;	0.1041
795.77;	0.1031
796.12;	0.1022
796.48;	0.1013
796.83;	0.1003
797.19;	0.0994
797.54;	0.0985
797.90;	0.0976
798.25;	0.0967
798.61;	0.0958
798.96;	0.0949
799.32;	0.0940
799.68;	0.0932
800.03;	0.0923
800.39;	0.0914
800.74;	0.0906
801.10;	0.0897
801.45;	0.0888
801.81;	0.0880
802.16;	0.0872
802.52;	0.0863
802.88;	0.0855
803.23;	0.0847
803.59;	0.0839
803.94;	0.0831
804.30;	0.0822
804.65;	0.0814
805.01;	0.0807
805.36;	0.0799
805.72;	0.0791
806.07;	0.0783
806.43;	0.0775
806.79;	0.0768
807.14;	0.0760
807.50;	0.0752
807.85;	0.0745
808.21;	0.0737
808.56;	0.0730
808.92;	0.0723
809.27;	0.0715
809.63;	0.0708
809.98;	0.0701
810.34;	0.0694
810.70;	0.0687
811.05;	0.0680
811.41;	0.0673
811.76;	0.0666
812.12;	0.0659
812.47;	0.0652
812.83;	0.0645
813.18;	0.0639
813.54;	0.0632
813.89;	0.0625
814.25;	0.0619
814.61;	0.0612
814.96;	0.0606
815.32;	0.0600
815.67;	0.0593
816.03;	0.0587
816.38;	0.0581
816.74;	0.0574
817.09;	0.0568
817.45;	0.0562
817.80;	0.0556
818.16;	0.0550
818.52;	0.0544
818.87;	0.0538
819.23;	0.0532
819.58;	0.0527
819.94;	0.0521
820.29;	0.0515
820.65;	0.0509
821.00;	0.0504
821.36;	0.0498
821.71;	0.0493
822.07;	0.0487
822.43;	0.0482
822.78;	0.0477
823.14;	0.0471
823.49;	0.0466
823.85;	0.0461
824.20;	0.0456
824.56;	0.0450
824.91;	0.0445
825.27;	0.0440
825.62;	0.0435
825.98;	0.0430
826.34;	0.0425
826.69;	0.0420
827.05;	0.0416
827.40;	0.0411
827.76;	0.0406
828.11;	0.0401
828.47;	0.0397
828.82;	0.0392
829.18;	0.0388
829.54;	0.0383
829.89;	0.0379
830.25;	0.0374
830.60;	0.0370
830.96;	0.0365
831.31;	0.0361
831.67;	0.0357
832.02;	0.0353
832.38;	0.0348
832.73;	0.0344
833.09;	0.0340
833.45;	0.0336
833.80;	0.0332
834.16;	0.0328
834.51;	0.0324
834.87;	0.0320
835.22;	0.0316
835.58;	0.0312
835.93;	0.0309
836.29;	0.0305
836.64;	0.0301
837.00;	0.0297
