wavelength, nm;	absorption
357.00;	0.2774
357.27;	0.2819
357.54;	0.2864
357.81;	0.2909
358.08;	0.2955
358.35;	0.3002
358.62;	0.3049
358.89;	0.3097
359.16;	0.3146
359.43;	0.3195
359.70;	0.3244
359.97;	0.3295
360.24;	0.3345
360.51;	0.3397
360.78;	0.3449
361.05;	0.3502
361.32;	0.3555
361.59;	0.3609
361.86;	0.3664
362.13;	0.3719
362.40;	0.3775
362.67;	0.3831
362.94;	0.3889
363.21;	0.3946
363.48;	0.4005
363.75;	0.4064
364.02;	0.4124
364.29;	0.4184
364.56;	0.4245
364.83;	0.4307
365.10;	0.4370
365.37;	0.4433
365.64;	0.4497
365.91;	0.4561
366.18;	0.4627
366.45;	0.4693
366.72;	0.4759
366.99;	0.4827
367.26;	0.4895
367.54;	0.4964
367.81;	0.5033
368.08;	0.5103
368.35;	0.5174
368.62;	0.5246
368.89;	0.5318
369.16;	0.5391
369.43;	0.5465
369.70;	0.5540
369.97;	0.5615
370.24;	0.5691
370.51;	0.5768
370.78;	0.5845
371.05;	0.5924
371.32;	0.6003
371.59;	0.6082
371.86;	0.6163
372.13;	0.6244
372.40;	0.6326
372.67;	0.6409
372.94;	0.6492
373.21;	0.6577
373.48;	0.6662
373.75;	0.6747
374.02;	0.6834
374.29;	0.6921
374.56;	0.7009
374.83;	0.7098
375.10;	0.7188
375.37;	0.7278
375.64;	0.7369
375.91;	0.7461
376.18;	0.7554
376.45;	0.7647
376.72;	0.7741
376.99;	0.7836
377.26;	0.7932
377.53;	0.8028
377.80;	0.8125
378.07;	0.8223
378.34;	0.8322
378.61;	0.8422
378.88;	0.8522
379.15;	0.8623
379.42;	0.8725
379.69;	0.8827
379.96;	0.8930
380.23;	0.9034
380.50;	0.9139
380.77;	0.9245
381.04;	0.9351
381.31;	0.9458
381.58;	0.9566
381.85;	0.9674
382.12;	0.9784
382.39;	0.9893
382.66;	1.0004
382.93;	1.0116
383.20;	1.0228
383.47;	1.0341
383.74;	1.0454
384.01;	1.0568
384.28;	1.0683
384.55;	1.0799
384.82;	1.0916
385.09;	1.1033
385.36;	1.1150
385.63;	1.1269
385.90;	1.1388
386.17;	1.1508
386.44;	1.1628
386.71;	1.1750
386.98;	1.1871
387.25;	1.1994
387.52;	1.2117
387.79;	1.2241
388.07;	1.2365
388.34;	1.2490
388.61;	1.2616
388.88;	1.2743
389.15;	1.2869
389.42;	1.2997
389.69;	1.3125
389.96;	1.3254
390.23;	1.3383
390.50;	1.3513
390.77;	1.3644
391.04;	1.3775
391.31;	1.3906
391.58;	1.4038
391.85;	1.4171
392.12;	1.4304
392.39;	1.4438
392.66;	1.4572
392.93;	1.4707
393.20;	1.4842
393.47;	1.4978
393.74;	1.5114
394.01;	1.5251
394.28;	1.5388
394.55;	1.5526
394.82;	1.5664
395.09;	1.5802
395.36;	1.5941
395.63;	1.6080
395.90;	1.6220
396.17;	1.6360
396.44;	1.6501
396.71;	1.6642
396.98;	1.6783
397.25;	1.6924
397.52;	1.7066
397.79;	1.7208
398.06;	1.7351
398.33;	1.7493
398.60;	1.7636
398.87;	1.7780
399.14;	1.7923
399.41;	1.8067
399.68;	1.8211
399.95;	1.8356
400.22;	1.8500
400.49;	1.8645
400.76;	1.8790
401.03;	1.8935
401.30;	1.9080
401.57;	1.9225
401.84;	1.9371
402.11;	1.9516
402.38;	1.9662
402.65;	1.9808
402.92;	1.9954
403.19;	2.0099
403.46;	2.0245
403.73;	2.0391
404.00;	2.0537
404.27;	2.0683
404.54;	2.0829
404.81;	2.0975
405.08;	2.1121
405.35;	2.1267
405.62;	2.1413
405.89;	2.1558
406.16;	2.1704
406.43;	2.1849
406.70;	2.1995
406.97;	2.2140
407.24;	2.2285
407.51;	2.2430
407.78;	2.2574
408.05;	2.2719
408.32;	2.2863
408.60;	2.3007
408.87;	2.3150
409.14;	2.3294
409.41;	2.3437
409.68;	2.3579
409.95;	2.3722
410.22;	2.3864
410.49;	2.4006
410.76;	2.4147
411.03;	2.4288
411.30;	2.4428
411.57;	2.4569
411.84;	2.4708
412.11;	2.4847
412.38;	2.4986
412.65;	2.5124
412.92;	2.5262
413.19;	2.5399
413.46;	2.5536
413.73;	2.5672
414.00;	2.5807
414.27;	2.5942
414.54;	2.6077
414.81;	2.6210
415.08;	2.6343
415.35;	2.6476
415.62;	2.6607
415.89;	2.6738
416.16;	2.6868
416.43;	2.6998
416.70;	2.7127
416.97;	2.7255
417.24;	2.7382
417.51;	2.7508
417.78;	2.7634
418.05;	2.7759
418.32;	2.7883
418.59;	2.8006
418.86;	2.8128
419.13;	2.8249
419.40;	2.8370
419.67;	2.8489
419.94;	2.8608
420.21;	2.8725
420.48;	2.8842
420.75;	2.8958
421.02;	2.9072
421.29;	2.9186
421.56;	2.9298
421.83;	2.9410
422.10;	2.9520
422.37;	2.9630
422.64;	2.9738
422.91;	2.9845
423.18;	2.9951
423.45;	3.0056
423.72;	3.0160
423.99;	3.0262
424.26;	3.0364
424.53;	3.0464
424.80;	3.0563
425.07;	3.0660
425.34;	3.0757
425.61;	3.0852
425.88;	3.0946
426.15;	3.1039
426.42;	3.1130
426.69;	3.1220
426.96;	3.1309
427.23;	3.1396
427.50;	3.1482
427.77;	3.1567
428.04;	3.1650
428.31;	3.1732
428.58;	3.1813
428.85;	3.1892
429.13;	3.1970
429.40;	3.2046
429.67;	3.2121
429.94;	3.2194
430.21;	3.2266
430.48;	3.2337
430.75;	3.2406
431.02;	3.2473
431.29;	3.2539
431.56;	3.2604
431.83;	3.2667
432.10;	3.2728
432.37;	3.2788
432.64;	3.2846
432.91;	3.2903
433.18;	3.2958
433.45;	3.3012
433.72;	3.3064
433.99;	3.3114
434.26;	3.3163
434.53;	3.3210
434.80;	3.3256
435.07;	3.3300
435.34;	3.3342
435.61;	3.3383
435.88;	3.3422
436.15;	3.3460
436.42;	3.3495
436.69;	3.3530
436.96;	3.3562
437.23;	3.3593
437.50;	3.3622
437.77;	3.3650
438.04;	3.3675
438.31;	3.3700
438.58;	3.3722
438.85;	3.3743
439.12;	3.3762
439.39;	3.3779
439.66;	3.3795
439.93;	3.3809
440.20;	3.3821
440.47;	3.3832
440.74;	3.3840
441.01;	3.3848
441.28;	3.3853
441.55;	3.3857
441.82;	3.3859
442.09;	3.3859
442.36;	3.3858
442.63;	3.3855
442.90;	3.3850
443.17;	3.3843
443.44;	3.3835
443.71;	3.3825
443.98;	3.3813
444.25;	3.3800
444.52;	3.3785
444.79;	3.3768
445.06;	3.3750
445.33;	3.3730
445.60;	3.3708
445.87;	3.3684
446.14;	3.3659
446.41;	3.3632
446.68;	3.3604
446.95;	3.3573
447.22;	3.3541
447.49;	3.3508
447.76;	3.3473
448.03;	3.3436
448.30;	3.3397
448.57;	3.3357
448.84;	3.3315
449.11;	3.3272
449.38;	3.3227
449.66;	3.3180
449.93;	3.3132
450.20;	3.3082
450.47;	3.3030
450.74;	3.2977
451.01;	3.2923
451.28;	3.2866
451.55;	3.2809
451.82;	3.2749
452.09;	3.2689
452.36;	3.2626
452.63;	3.2562
452.90;	3.2497
453.17;	3.2430
453.44;	3.2361
453.71;	3.2291
453.98;	3.2220
454.25;	3.2147
454.52;	3.2073
454.79;	3.1997
455.06;	3.1920
455.33;	3.1841
455.60;	3.1761
455.87;	3.1680
456.14;	3.1597
456.41;	3.1513
456.68;	3.1427
456.95;	3.1340
457.22;	3.1252
457.49;	3.1163
457.76;	3.1072
458.03;	3.0979
458.30;	3.0886
458.57;	3.0791
458.84;	3.0695
459.11;	3.0598
459.38;	3.0500
459.65;	3.0400
459.92;	3.0299
460.19;	3.0197
460.46;	3.0094
460.73;	2.9989
461.00;	2.9884
461.27;	2.9777
461.54;	2.9669
461.81;	2.9560
462.08;	2.9450
462.35;	2.9339
462.62;	2.9227
462.89;	2.9114
463.16;	2.9000
463.43;	2.8884
463.70;	2.8768
463.97;	2.8651
464.24;	2.8533
464.51;	2.8414
464.78;	2.8294
465.05;	2.8173
465.32;	2.8051
465.59;	2.7928
465.86;	2.7805
466.13;	2.7680
466.40;	2.7555
466.67;	2.7429
466.94;	2.7302
467.21;	2.7174
467.48;	2.7046
467.75;	2.6917
468.02;	2.6787
468.29;	2.6656
468.56;	2.6525
468.83;	2.6393
469.10;	2.6260
469.37;	2.6127
469.64;	2.5993
469.91;	2.5858
470.19;	2.5723
470.46;	2.5587
470.73;	2.5451
471.00;	2.5314
471.27;	2.5176
471.54;	2.5038
471.81;	2.4900
472.08;	2.4761
472.35;	2.4622
472.62;	2.4482
472.89;	2.4341
473.16;	2.4201
473.43;	2.4060
473.70;	2.3918
473.97;	2.3776
474.24;	2.3634
474.51;	2.3492
474.78;	2.3349
475.05;	2.3206
475.32;	2.3062
475.59;	2.2918
475.86;	2.2775
476.13;	2.2630
476.40;	2.2486
476.67;	2.2341
476.94;	2.2197
477.21;	2.2052
477.48;	2.1906
477.75;	2.1761
478.02;	2.1616
478.29;	2.1470
478.56;	2.1325
478.83;	2.1179
479.10;	2.1033
479.37;	2.0888
479.64;	2.0742
479.91;	2.0596
480.18;	2.0450
480.45;	2.0304
480.72;	2.0158
480.99;	2.0013
481.26;	1.9867
481.53;	1.9721
481.80;	1.9576
482.07;	1.9430
482.34;	1.9285
482.61;	1.9140
482.88;	1.8995
483.15;	1.8850
483.42;	1.8705
483.69;	1.8560
483.96;	1.8416
484.23;	1.8272
484.50;	1.8128
484.77;	1.7984
485.04;	1.7841
485.31;	1.7697
485.58;	1.7554
485.85;	1.7412
486.12;	1.7269
486.39;	1.7127
486.66;	1.6985
486.93;	1.6844
487.20;	1.6703
487.47;	1.6562
487.74;	1.6422
488.01;	1.6282
488.28;	1.6142
488.55;	1.6003
488.82;	1.5864
489.09;	1.5726
489.36;	1.5588
489.63;	1.5450
489.90;	1.5313
490.17;	1.5176
490.44;	1.5040
490.72;	1.4905
490.99;	1.4769
491.26;	1.4635
491.53;	1.4500
491.80;	1.4367
492.07;	1.4234
492.34;	1.4101
492.61;	1.3969
492.88;	1.3837
493.15;	1.3706
493.42;	1.3576
493.69;	1.3446
493.96;	1.3317
494.23;	1.3188
494.50;	1.3060
494.77;	1.2932
495.04;	1.2806
495.31;	1.2679
495.58;	1.2554
495.85;	1.2429
496.12;	1.2304
496.39;	1.2180
496.66;	1.2057
496.93;	1.1935
497.20;	1.1813
497.47;	1.1692
497.74;	1.1571
498.01;	1.1452
498.28;	1.1333
498.55;	1.1214
498.82;	1.1096
499.09;	1.0979
499.36;	1.0863
499.63;	1.0747
499.90;	1.0632
500.17;	1.0518
500.44;	1.0405
500.71;	1.0292
500.98;	1.0180
501.25;	1.0069
501.52;	0.9958
501.79;	0.9848
502.06;	0.9739
502.33;	0.9631
502.60;	0.9523
502.87;	0.9416
503.14;	0.9310
503.41;	0.9204
503.68;	0.9100
503.95;	0.8996
504.22;	0.8893
504.49;	0.8790
504.76;	0.8688
505.03;	0.8588
505.30;	0.8487
505.57;	0.8388
505.84;	0.8289
506.11;	0.8192
506.38;	0.8095
506.65;	0.7998
506.92;	0.7903
507.19;	0.7808
507.46;	0.7714
507.73;	0.7621
508.00;	0.7528
508.27;	0.7436
508.54;	0.7345
508.81;	0.7255
509.08;	0.7166
509.35;	0.7077
509.62;	0.6989
509.89;	0.6902
510.16;	0.6816
510.43;	0.6730
510.70;	0.6645
510.97;	0.6561
511.25;	0.6478
511.52;	0.6395
511.79;	0.6314
512.06;	0.6233
512.33;	0.6152
512.60;	0.6073
512.87;	0.5994
513.14;	0.5916
513.41;	0.5839
513.68;	0.5762
513.95;	0.5686
514.22;	0.5611
514.49;	0.5537
514.76;	0.5463
515.03;	0.5390
515.30;	0.5318
515.57;	0.5247
515.84;	0.5176
516.11;	0.5106
516.38;	0.5037
516.65;	0.4968
516.92;	0.4901
517.19;	0.4834
517.46;	0.4767
517.73;	0.4702
518.00;	0.4637
518.27;	0.4572
518.54;	0.4509
518.81;	0.4446
519.08;	0.4384
519.35;	0.4322
519.62;	0.4261
519.89;	0.4201
520.16;	0.4142
520.43;	0.4083
520.70;	0.4025
520.97;	0.3967
521.24;	0.3910
521.51;	0.3854
521.78;	0.3799
522.05;	0.3744
522.32;	0.3690
522.59;	0.3636
522.86;	0.3583
523.13;	0.3531
523.40;	0.3479
523.67;	0.3428
523.94;	0.3378
524.21;	0.3328
524.48;	0.3279
524.75;	0.3230
525.02;	0.3182
525.29;	0.3135
525.56;	0.3088
525.83;	0.3042
526.10;	0.2996
526.37;	0.2951
526.64;	0.2907
526.91;	0.2863
527.18;	0.2819
527.45;	0.2777
527.72;	0.2734
527.99;	0.2693
528.26;	0.2652
528.53;	0.2611
528.80;	0.2571
529.07;	0.2532
529.34;	0.2493
529.61;	0.2454
529.88;	0.2416
530.15;	0.2379
530.42;	0.2342
530.69;	0.2306
530.96;	0.2270
531.23;	0.2235
531.50;	0.2200
531.77;	0.2165
532.05;	0.2131
532.32;	0.2098
532.59;	0.2065
532.86;	0.2033
533.13;	0.2001
533.40;	0.1969
533.67;	0.1938
533.94;	0.1908
534.21;	0.1877
534.48;	0.1848
534.75;	0.1819
535.02;	0.1790
535.29;	0.1761
535.56;	0.1733
535.83;	0.1706
536.10;	0.1679
536.37;	0.1652
536.64;	0.1626
536.91;	0.1600
537.18;	0.1574
537.45;	0.1549
537.72;	0.1525
537.99;	0.1500
538.26;	0.1476
538.53;	0.1453
538.80;	0.1430
539.07;	0.1407
539.34;	0.1385
539.61;	0.1362
539.88;	0.1341
540.15;	0.1319
540.42;	0.1298
540.69;	0.1278
540.96;	0.1258
541.23;	0.1238
541.50;	0.1218
541.77;	0.1199
542.04;	0.1180
542.31;	0.1161
542.58;	0.1143
542.85;	0.1125
543.12;	0.1107
543.39;	0.1090
543.66;	0.1073
543.93;	0.1056
544.20;	0.1039
544.47;	0.1023
544.74;	0.1007
545.01;	0.0992
545.28;	0.0976
545.55;	0.0961
545.82;	0.0947
546.09;	0.0932
546.36;	0.0918
546.63;	0.0904
546.90;	0.0890
547.17;	0.0877
547.44;	0.0864
547.71;	0.0851
547.98;	0.0838
548.25;	0.0825
548.52;	0.0813
548.79;	0.0801
549.06;	0.0790
549.33;	0.0778
549.60;	0.0767
549.87;	0.0756
550.14;	0.0745
550.41;	0.0734
550.68;	0.0724
550.95;	0.0714
551.22;	0.0704
551.49;	0.0694
551.76;	0.0684
552.03;	0.0675
552.30;	0.0666
552.58;	0.0657
552.85;	0.0648
553.12;	0.0640
553.39;	0.0631
553.66;	0.0623
553.93;	0.0615
554.20;	0.0607
554.47;	0.0599
554.74;	0.0592
555.01;	0.0585
555.28;	0.0577
555.55;	0.0570
555.82;	0.0564
556.09;	0.0557
556.36;	0.0550
556.63;	0.0544
556.90;	0.0538
557.17;	0.0532
557.44;	0.0526
557.71;	0.0520
557.98;	0.0514
558.25;	0.0509
558.52;	0.0504
558.79;	0.0498
559.06;	0.0493
559.33;	0.0488
559.60;	0.0484
559.87;	0.0479
560.14;	0.0474
560.41;	0.0470
560.68;	0.0466
560.95;	0.0462
561.22;	0.0458
561.49;	0.0454
561.76;	0.0450
562.03;	0.0446
562.30;	0.0443
562.57;	0.0439
562.84;	0.0436
563.11;	0.0432
563.38;	0.0429
563.65;	0.0426
563.92;	0.0423
564.19;	0.0420
564.46;	0.0418
564.73;	0.0415
565.00;	0.0413
565.27;	0.0410
565.54;	0.0408
565.81;	0.0405
566.08;	0.0403
566.35;	0.0401
566.62;	0.0399
566.89;	0.0397
567.16;	0.0395
567.43;	0.0394
567.70;	0.0392
567.97;	0.0390
568.24;	0.0389
568.51;	0.0387
568.78;	0.0386
569.05;	0.0385
569.32;	0.0383
569.59;	0.0382
569.86;	0.0381
570.13;	0.0380
570.40;	0.0379
570.67;	0.0378
570.94;	0.0377
571.21;	0.0377
571.48;	0.0376
571.75;	0.0375
572.02;	0.0375
572.29;	0.0374
572.56;	0.0374
572.83;	0.0373
573.11;	0.0373
573.38;	0.0373
573.65;	0.0373
573.92;	0.0372
574.19;	0.0372
574.46;	0.0372
574.73;	0.0372
575.00;	0.0372
575.27;	0.0372
575.54;	0.0372
575.81;	0.0373
576.08;	0.0373
576.35;	0.0373
576.62;	0.0373
576.89;	0.0374
577.16;	0.0374
577.43;	0.0375
577.70;	0.0375
577.97;	0.0376
578.24;	0.0376
578.51;	0.0377
578.78;	0.0377
579.05;	0.0378
579.32;	0.0379
579.59;	0.0380
579.86;	0.0380
580.13;	0.0381
580.40;	0.0382
580.67;	0.0383
580.94;	0.0384
581.21;	0.0385
581.48;	0.0386
581.75;	0.0387
582.02;	0.0388
582.29;	0.0389
582.56;	0.0390
582.83;	0.0391
583.10;	0.0393
583.37;	0.0394
583.64;	0.0395
583.91;	0.0396
584.18;	0.0398
584.45;	0.0399
584.72;	0.0400
584.99;	0.0402
585.26;	0.0403
585.53;	0.0405
585.80;	0.0406
586.07;	0.0408
586.34;	0.0409
586.61;	0.0411
586.88;	0.0412
587.15;	0.0414
587.42;	0.0415
587.69;	0.0417
587.96;	0.0419
588.23;	0.0420
588.50;	0.0422
588.77;	0.0424
589.04;	0.0425
589.31;	0.0427
589.58;	0.0429
589.85;	0.0431
590.12;	0.0432
590.39;	0.0434
590.66;	0.0436
590.93;	0.0438
591.20;	0.0440
591.47;	0.0442
591.74;	0.0443
592.01;	0.0445
592.28;	0.0447
592.55;	0.0449
592.82;	0.0451
593.09;	0.0453
593.36;	0.0455
593.64;	0.0457
593.91;	0.0459
594.18;	0.0461
594.45;	0.0463
594.72;	0.0465
594.99;	0.0467
595.26;	0.0469
595.53;	0.0472
595.80;	0.0474
596.07;	0.0476
596.34;	0.0478
596.61;	0.0480
596.88;	0.0482
597.15;	0.0484
597.42;	0.0487
597.69;	0.0489
597.96;	0.0491
598.23;	0.0493
598.50;	0.0495
598.77;	0.0498
599.04;	0.0500
599.31;	0.0502
599.58;	0.0504
599.85;	0.0507
600.12;	0.0509
600.39;	0.0511
600.66;	0.0513
600.93;	0.0516
601.20;	0.0518
601.47;	0.0520
601.74;	0.0523
602.01;	0.0525
602.28;	0.0527
602.55;	0.0530
602.82;	0.0532
603.09;	0.0534
603.36;	0.0537
603.63;	0.0539
603.90;	0.0541
604.17;	0.0544
604.44;	0.0546
604.71;	0.0549
604.98;	0.0551
605.25;	0.0553
605.52;	0.0556
605.79;	0.0558
606.06;	0.0561
606.33;	0.0563
606.60;	0.0565
606.87;	0.0568
607.14;	0.0570
607.41;	0.0573
607.68;	0.0575
607.95;	0.0578
608.22;	0.0580
608.49;	0.0583
608.76;	0.0585
609.03;	0.0587
609.30;	0.0590
609.57;	0.0592
609.84;	0.0595
610.11;	0.0597
610.38;	0.0600
610.65;	0.0602
610.92;	0.0605
611.19;	0.0607
611.46;	0.0610
611.73;	0.0612
612.00;	0.0615
612.27;	0.0617
612.54;	0.0620
612.81;	0.0622
613.08;	0.0625
613.35;	0.0627
613.62;	0.0630
613.89;	0.0632
614.17;	0.0635
614.44;	0.0637
614.71;	0.0640
614.98;	0.0642
615.25;	0.0645
615.52;	0.0647
615.79;	0.0650
616.06;	0.0652
616.33;	0.0655
616.60;	0.0657
616.87;	0.0660
617.14;	0.0662
617.41;	0.0665
617.68;	0.0668
617.95;	0.0670
618.22;	0.0673
618.49;	0.0675
618.76;	0.0678
619.03;	0.0680
619.30;	0.0683
619.57;	0.0685
619.84;	0.0688
620.11;	0.0690
620.38;	0.0693
620.65;	0.0695
620.92;	0.0698
621.19;	0.0700
621.46;	0.0703
621.73;	0.0705
622.00;	0.0708
622.27;	0.0710
622.54;	0.0713
622.81;	0.0715
623.08;	0.0718
623.35;	0.0720
623.62;	0.0723
623.89;	0.0725
624.16;	0.0728
624.43;	0.0730
624.70;	0.0732
624.97;	0.0735
625.24;	0.0737
625.51;	0.0740
625.78;	0.0742
626.05;	0.0745
626.32;	0.0747
626.59;	0.0750
626.86;	0.0752
627.13;	0.0755
627.40;	0.0757
627.67;	0.0759
627.94;	0.0762
628.21;	0.0764
628.48;	0.0767
628.75;	0.0769
629.02;	0.0772
629.29;	0.0774
629.56;	0.0776
629.83;	0.0779
630.10;	0.0781
630.37;	0.0783
630.64;	0.0786
630.91;	0.0788
631.18;	0.0791
631.45;	0.0793
631.72;	0.0795
631.99;	0.0798
632.26;	0.0800
632.53;	0.0802
632.80;	0.0805
633.07;	0.0807
633.34;	0.0809
633.61;	0.0812
633.88;	0.0814
634.15;	0.0816
634.42;	0.0819
634.70;	0.0821
634.97;	0.0823
635.24;	0.0825
635.51;	0.0828
635.78;	0.0830
636.05;	0.0832
636.32;	0.0834
636.59;	0.0837
636.86;	0.0839
637.13;	0.0841
637.40;	0.0843
637.67;	0.0846
637.94;	0.0848
638.21;	0.0850
638.48;	0.0852
638.75;	0.0854
639.02;	0.0856
639.29;	0.0859
639.56;	0.0861
639.83;	0.0863
640.10;	0.0865
640.37;	0.0867
640.64;	0.0869
640.91;	0.0871
641.18;	0.0873
641.45;	0.0876
641.72;	0.0878
641.99;	0.0880
642.26;	0.0882
642.53;	0.0884
642.80;	0.0886
643.07;	0.0888
643.34;	0.0890
643.61;	0.0892
643.88;	0.0894
644.15;	0.0896
644.42;	0.0898
644.69;	0.0900
644.96;	0.0902
645.23;	0.0904
645.50;	0.0906
645.77;	0.0908
646.04;	0.0910
646.31;	0.0911
646.58;	0.0913
646.85;	0.0915
647.12;	0.0917
647.39;	0.0919
647.66;	0.0921
647.93;	0.0923
648.20;	0.0924
648.47;	0.0926
648.74;	0.0928
649.01;	0.0930
649.28;	0.0932
649.55;	0.0933
649.82;	0.0935
650.09;	0.0937
650.36;	0.0939
650.63;	0.0940
650.90;	0.0942
651.17;	0.0944
651.44;	0.0946
651.71;	0.0947
651.98;	0.0949
652.25;	0.0950
652.52;	0.0952
652.79;	0.0954
653.06;	0.0955
653.33;	0.0957
653.60;	0.0959
653.87;	0.0960
654.14;	0.0962
654.41;	0.0963
654.68;	0.0965
654.95;	0.0966
655.23;	0.0968
655.50;	0.0969
655.77;	0.0971
656.04;	0.0972
656.31;	0.0974
656.58;	0.0975
656.85;	0.0977
657.12;	0.0978
657.39;	0.0979
657.66;	0.0981
657.93;	0.0982
658.20;	0.0983
658.47;	0.0985
658.74;	0.0986
659.01;	0.0987
659.28;	0.0989
659.55;	0.0990
659.82;	0.0991
660.09;	0.0993
660.36;	0.0994
660.63;	0.0995
660.90;	0.0996
661.17;	0.0997
661.44;	0.0999
661.71;	0.1000
661.98;	0.1001
662.25;	0.1002
662.52;	0.1003
662.79;	0.1004
663.06;	0.1005
663.33;	0.1007
663.60;	0.1008
663.87;	0.1009
664.14;	0.1010
664.41;	0.1011
664.68;	0.1012
664.95;	0.1013
665.22;	0.1014
665.49;	0.1015
665.76;	0.1016
666.03;	0.1016
666.30;	0.1017
666.57;	0.1018
666.84;	0.1019
667.11;	0.1020
667.38;	0.1021
667.65;	0.1022
667.92;	0.1022
668.19;	0.1023
668.46;	0.1024
668.73;	0.1025
669.00;	0.1026
669.27;	0.1026
669.54;	0.1027
669.81;	0.1028
670.08;	0.1028
670.35;	0.1029
670.62;	0.1030
670.89;	0.1030
671.16;	0.1031
671.43;	0.1032
671.70;	0.1032
671.97;	0.1033
672.24;	0.1033
672.51;	0.1034
672.78;	0.1034
673.05;	0.1035
673.32;	0.1035
673.59;	0.1036
673.86;	0.1036
674.13;	0.1037
674.40;	0.1037
674.67;	0.1037
674.94;	0.1038
675.21;	0.1038
675.48;	0.1039
675.75;	0.1039
676.03;	0.1039
676.30;	0.1040
676.57;	0.1040
676.84;	0.1040
677.11;	0.1040
677.38;	0.1041
677.65;	0.1041
677.92;	0.1041
678.19;	0.1041
678.46;	0.1041
678.73;	0.1042
679.00;	0.1042
679.27;	0.1042
679.54;	0.1042
679.81;	0.1042
680.08;	0.1042
680.35;	0.1042
680.62;	0.1042
680.89;	0.1042
681.16;	0.1042
681.43;	0.1042
681.70;	0.1042
681.97;	0.1042
682.24;	0.1042
682.51;	0.1042
682.78;	0.1042
683.05;	0.1042
683.32;	0.1042
683.59;	0.1041
683.86;	0.1041
684.13;	0.1041
684.40;	0.1041
684.67;	0.1041
684.94;	0.1040
685.21;	0.1040
685.48;	0.1040
685.75;	0.1040
686.02;	0.1039
686.29;	0.1039
686.56;	0.1039
686.83;	0.1038
687.10;	0.1038
687.37;	0.1037
687.64;	0.1037
687.91;	0.1037
688.18;	0.1036
688.45;	0.1036
688.72;	0.1035
688.99;	0.1035
689.26;	0.1034
689.53;	0.1034
689.80;	0.1033
690.07;	0.1033
690.34;	0.1032
690.61;	0.1031
690.88;	0.1031
691.15;	0.1030
691.42;	0.1030
691.69;	0.1029
691.96;	0.1028
692.23;	0.1028
692.50;	0.1027
692.77;	0.1026
693.04;	0.1025
693.31;	0.1025
693.58;	0.1024
693.85;	0.1023
694.12;	0.1022
694.39;	0.1022
694.66;	0.1021
694.93;	0.1020
695.20;	0.1019
695.47;	0.1018
695.74;	0.1017
696.01;	0.1016
696.28;	0.1015
696.56;	0.1014
696.83;	0.1013
697.10;	0.1012
697.37;	0.1011
697.64;	0.1010
697.91;	0.1009
698.18;	0.1008
698.45;	0.1007
698.72;	0.1006
698.99;	0.1005
699.26;	0.1004
699.53;	0.1003
699.80;	0.1002
700.07;	0.1001
700.34;	0.1000
700.61;	0.0998
700.88;	0.0997
701.15;	0.0996
701.42;	0.0995
701.69;	0.0994
701.96;	0.0992
702.23;	0.0991
702.50;	0.0990
702.77;	0.0989
703.04;	0.0987
703.31;	0.0986
703.58;	0.0985
703.85;	0.0983
704.12;	0.0982
704.39;	0.0981
704.66;	0.0979
704.93;	0.0978
705.20;	0.0976
705.47;	0.0975
705.74;	0.0973
706.01;	0.0972
706.28;	0.0971
706.55;	0.0969
706.82;	0.0968
707.09;	0.0966
707.36;	0.0965
707.63;	0.0963
707.90;	0.0961
708.17;	0.0960
708.44;	0.0958
708.71;	0.0957
708.98;	0.0955
709.25;	0.0953
709.52;	0.0952
709.79;	0.0950
710.06;	0.0949
710.33;	0.0947
710.60;	0.0945
710.87;	0.0944
711.14;	0.0942
711.41;	0.0940
711.68;	0.0938
711.95;	0.0937
712.22;	0.0935
712.49;	0.0933
712.76;	0.0931
713.03;	0.0930
713.30;	0.0928
713.57;	0.0926
713.84;	0.0924
714.11;	0.0922
714.38;	0.0920
714.65;	0.0919
714.92;	0.0917
715.19;	0.0915
715.46;	0.0913
715.73;	0.0911
716.00;	0.0909
716.27;	0.0907
716.54;	0.0905
716.81;	0.0903
717.09;	0.0901
717.36;	0.0899
717.63;	0.0897
717.90;	0.0896
718.17;	0.0894
718.44;	0.0892
718.71;	0.0890
718.98;	0.0887
719.25;	0.0885
719.52;	0.0883
719.79;	0.0881
720.06;	0.0879
720.33;	0.0877
720.60;	0.0875
720.87;	0.0873
721.14;	0.0871
721.41;	0.0869
721.68;	0.0867
721.95;	0.0865
722.22;	0.0862
722.49;	0.0860
722.76;	0.0858
723.03;	0.0856
723.30;	0.0854
723.57;	0.0852
723.84;	0.0849
724.11;	0.0847
724.38;	0.0845
724.65;	0.0843
724.92;	0.0841
725.19;	0.0838
725.46;	0.0836
725.73;	0.0834
726.00;	0.0832
726.27;	0.0829
726.54;	0.0827
726.81;	0.0825
727.08;	0.0823
727.35;	0.0820
727.62;	0.0818
727.89;	0.0816
728.16;	0.0813
728.43;	0.0811
728.70;	0.0809
728.97;	0.0806
729.24;	0.0804
729.51;	0.0802
729.78;	0.0799
730.05;	0.0797
730.32;	0.0795
730.59;	0.0792
730.86;	0.0790
731.13;	0.0788
731.40;	0.0785
731.67;	0.0783
731.94;	0.0781
732.21;	0.0778
732.48;	0.0776
732.75;	0.0773
733.02;	0.0771
733.29;	0.0768
733.56;	0.0766
733.83;	0.0764
734.10;	0.0761
734.37;	0.0759
734.64;	0.0756
734.91;	0.0754
735.18;	0.0751
735.45;	0.0749
735.72;	0.0747
735.99;	0.0744
736.26;	0.0742
736.53;	0.0739
736.80;	0.0737
737.07;	0.0734
737.34;	0.0732
737.62;	0.0729
737.89;	0.0727
738.16;	0.0724
738.43;	0.0722
738.70;	0.0719
738.97;	0.0717
739.24;	0.0714
739.51;	0.0712
739.78;	0.0709
740.05;	0.0707
740.32;	0.0704
740.59;	0.0702
740.86;	0.0699
741.13;	0.0697
741.40;	0.0694
741.67;	0.0692
741.94;	0.0689
742.21;	0.0687
742.48;	0.0684
742.75;	0.0682
743.02;	0.0679
743.29;	0.0676
743.56;	0.0674
743.83;	0.0671
744.10;	0.0669
744.37;	0.0666
744.64;	0.0664
744.91;	0.0661
745.18;	0.0659
745.45;	0.0656
745.72;	0.0654
745.99;	0.0651
746.26;	0.0649
746.53;	0.0646
746.80;	0.0643
747.07;	0.0641
747.34;	0.0638
747.61;	0.0636
747.88;	0.0633
748.15;	0.0631
748.42;	0.0628
748.69;	0.0626
748.96;	0.0623
749.23;	0.0620
749.50;	0.0618
749.77;	0.0615
750.04;	0.0613
750.31;	0.0610
750.58;	0.0608
750.85;	0.0605
751.12;	0.0603
751.39;	0.0600
751.66;	0.0598
751.93;	0.0595
752.20;	0.0592
752.47;	0.0590
752.74;	0.0587
753.01;	0.0585
753.28;	0.0582
753.55;	0.0580
753.82;	0.0577
754.09;	0.0575
754.36;	0.0572
754.63;	0.0570
754.90;	0.0567
755.17;	0.0565
755.44;	0.0562
755.71;	0.0560
755.98;	0.0557
756.25;	0.0555
756.52;	0.0552
756.79;	0.0550
757.06;	0.0547
757.33;	0.0545
757.60;	0.0542
757.87;	0.0540
758.15;	0.0537
758.42;	0.0535
758.69;	0.0532
758.96;	0.0530
759.23;	0.0527
759.50;	0.0525
759.77;	0.0522
760.04;	0.0520
760.31;	0.0517
760.58;	0.0515
760.85;	0.0512
761.12;	0.0510
761.39;	0.0507
761.66;	0.0505
761.93;	0.0502
762.20;	0.0500
762.47;	0.0498
762.74;	0.0495
763.01;	0.0493
763.28;	0.0490
763.55;	0.0488
763.82;	0.0485
764.09;	0.0483
764.36;	0.0481
764.63;	0.0478
764.90;	0.0476
765.17;	0.0473
765.44;	0.0471
765.71;	0.0469
765.98;	0.0466
766.25;	0.0464
766.52;	0.0461
766.79;	0.0459
767.06;	0.0457
767.33;	0.0454
767.60;	0.0452
767.87;	0.0450
768.14;	0.0447
768.41;	0.0445
768.68;	0.0443
768.95;	0.0440
769.22;	0.0438
769.49;	0.0436
769.76;	0.0433
770.03;	0.0431
770.30;	0.0429
770.57;	0.0426
770.84;	0.0424
771.11;	0.0422
771.38;	0.0420
771.65;	0.0417
771.92;	0.0415
772.19;	0.0413
772.46;	0.0410
772.73;	0.0408
773.00;	0.0406
773.27;	0.0404
773.54;	0.0401
773.81;	0.0399
774.08;	0.0397
774.35;	0.0395
774.62;	0.0393
774.89;	0.0390
775.16;	0.0388
775.43;	0.0386
775.70;	0.0384
775.97;	0.0382
776.24;	0.0379
776.51;	0.0377
776.78;	0.0375
777.05;	0.0373
777.32;	0.0371
777.59;	0.0369
777.86;	0.0366
778.13;	0.0364
778.40;	0.0362
778.68;	0.0360
778.95;	0.0358
779.22;	0.0356
779.49;	0.0354
779.76;	0.0352
780.03;	0.0350
780.30;	0.0348
780.57;	0.0345
780.84;	0.0343
781.11;	0.0341
781.38;	0.0339
781.65;	0.0337
781.92;	0.0335
782.19;	0.0333
782.46;	0.0331
782.73;	0.0329
783.00;	0.0327
783.27;	0.0325
783.54;	0.0323
783.81;	0.0321
784.08;	0.0319
784.35;	0.0317
784.62;	0.0315
784.89;	0.0313
785.16;	0.0311
785.43;	0.0309
785.70;	0.0307
785.97;	0.0305
786.24;	0.0304
786.51;	0.0302
786.78;	0.0300
787.05;	0.0298
787.32;	0.0296
787.59;	0.0294
787.86;	0.0292
788.13;	0.0290
788.40;	0.0288
788.67;	0.0287
788.94;	0.0285
789.21;	0.0283
789.48;	0.0281
789.75;	0.0279
790.02;	0.0277
790.29;	0.0276
790.56;	0.0274
790.83;	0.0272
791.10;	0.0270
791.37;	0.0268
791.64;	0.0267
791.91;	0.0265
792.18;	0.0263
792.45;	0.0261
792.72;	0.0260
792.99;	0.0258
793.26;	0.0256
793.53;	0.0254
793.80;	0.0253
794.07;	0.0251
794.34;	0.0249
794.61;	0.0247
794.88;	0.0246
795.15;	0.0244
795.42;	0.0242
795.69;	0.0241
795.96;	0.0239
796.23;	0.0237
796.50;	0.0236
796.77;	0.0234
797.04;	0.0233
797.31;	0.0231
797.58;	0.0229
797.85;	0.0228
798.12;	0.0226
798.39;	0.0225
798.66;	0.0223
798.93;	0.0221
799.21;	0.0220
799.48;	0.0218
799.75;	0.0217
800.02;	0.0215
800.29;	0.0214
800.56;	0.0212
800.83;	0.0211
801.10;	0.0209
801.37;	0.0208
801.64;	0.0206
801.91;	0.0205
802.18;	0.0203
802.45;	0.0202
802.72;	0.0200
802.99;	0.0199
803.26;	0.0197
803.53;	0.0196
803.80;	0.0194
804.07;	0.0193
804.34;	0.0191
804.61;	0.0190
804.88;	0.0189
805.15;	0.0187
805.42;	0.0186
805.69;	0.0184
805.96;	0.0183
806.23;	0.0182
806.50;	0.0180
806.77;	0.0179
807.04;	0.0178
807.31;	0.0176
807.58;	0.0175
807.85;	0.0174
808.12;	0.0172
808.39;	0.0171
808.66;	0.0170
808.93;	0.0168
809.20;	0.0167
809.47;	0.0166
809.74;	0.0165
810.01;	0.0163
810.28;	0.0162
810.55;	0.0161
810.82;	0.0159
811.09;	0.0158
811.36;	0.0157
811.63;	0.0156
811.90;	0.0155
812.17;	0.0153
812.44;	0.0152
812.71;	0.0151
812.98;	0.0150
813.25;	0.0149
813.52;	0.0147
813.79;	0.0146
814.06;	0.0145
814.33;	0.0144
814.60;	0.0143
814.87;	0.0142
815.14;	0.0140
815.41;	0.0139
815.68;	0.0138
815.95;	0.0137
816.22;	0.0136
816.49;	0.0135
816.76;	0.0134
817.03;	0.0133
817.30;	0.0132
817.57;	0.0131
817.84;	0.0129
818.11;	0.0128
818.38;	0.0127
818.65;	0.0126
818.92;	0.0125
819.19;	0.0124
819.46;	0.0123
819.74;	0.0122
820.01;	0.0121
820.28;	0.0120
820.55;	0.0119
820.82;	0.0118
821.09;	0.0117
821.36;	0.0116
821.63;	0.0115
821.90;	0.0114
822.17;	0.0113
822.44;	0.0112
822.71;	0.0111
822.98;	0.0110
823.25;	0.0109
823.52;	0.0108
823.79;	0.0108
824.06;	0.0107
824.33;	0.0106
824.60;	0.0105
824.87;	0.0104
825.14;	0.0103
825.41;	0.0102
825.68;	0.0101
825.95;	0.0100
826.22;	0.0099
826.49;	0.0099
826.76;	0.0098
827.03;	0.0097
827.30;	0.0096
827.57;	0.0095
827.84;	0.0094
828.11;	0.0094
828.38;	0.0093
828.65;	0.0092
828.92;	0.0091
829.19;	0.0090
829.46;	0.0089
829.73;	0.0089
830.00;	0.0088
