wavelength, nm;	absorption
395.00;	1.4077
395.32;	1.4226
395.65;	1.4374
395.97;	1.4524
396.29;	1.4674
396.62;	1.4824
396.94;	1.4975
397.26;	1.5126
397.59;	1.5278
397.91;	1.5430
398.23;	1.5583
398.56;	1.5736
398.88;	1.5889
399.20;	1.6042
399.53;	1.6196
399.85;	1.6350
400.17;	1.6505
400.50;	1.6660
400.82;	1.6815
401.14;	1.6970
401.47;	1.7125
401.79;	1.7281
402.11;	1.7436
402.44;	1.7592
402.76;	1.7748
403.08;	1.7904
403.41;	1.8060
403.73;	1.8216
404.05;	1.8372
404.38;	1.8528
404.70;	1.8684
405.02;	1.8840
405.35;	1.8996
405.67;	1.9152
405.99;	1.9308
406.32;	1.9463
406.64;	1.9619
406.96;	1.9774
407.29;	1.9929
407.61;	2.0084
407.93;	2.0238
408.26;	2.0393
408.58;	2.0547
408.90;	2.0700
409.23;	2.0853
409.55;	2.1006
409.87;	2.1159
410.20;	2.1311
410.52;	2.1462
410.84;	2.1613
411.17;	2.1764
411.49;	2.1914
411.81;	2.2063
412.14;	2.2212
412.46;	2.2360
412.78;	2.2508
413.11;	2.2655
413.43;	2.2801
413.75;	2.2946
414.08;	2.3091
414.40;	2.3235
414.72;	2.3378
415.05;	2.3521
415.37;	2.3662
415.69;	2.3803
416.02;	2.3943
416.34;	2.4082
416.66;	2.4219
416.98;	2.4356
417.31;	2.4492
417.63;	2.4627
417.95;	2.4761
418.28;	2.4894
418.60;	2.5026
418.92;	2.5156
419.25;	2.5286
419.57;	2.5414
419.89;	2.5541
420.22;	2.5667
420.54;	2.5791
420.86;	2.5914
421.19;	2.6036
421.51;	2.6157
421.83;	2.6277
422.16;	2.6394
422.48;	2.6511
422.80;	2.6626
423.13;	2.6740
423.45;	2.6852
423.77;	2.6963
424.10;	2.7072
424.42;	2.7180
424.74;	2.7286
425.07;	2.7391
425.39;	2.7494
425.71;	2.7596
426.04;	2.7695
426.36;	2.7794
426.68;	2.7890
427.01;	2.7985
427.33;	2.8078
427.65;	2.8169
427.98;	2.8259
428.30;	2.8347
428.62;	2.8433
428.95;	2.8517
429.27;	2.8600
429.59;	2.8680
429.92;	2.8759
430.24;	2.8836
430.56;	2.8911
430.89;	2.8984
431.21;	2.9055
431.53;	2.9125
431.86;	2.9192
432.18;	2.9257
432.50;	2.9321
432.83;	2.9382
433.15;	2.9442
433.47;	2.9499
433.80;	2.9554
434.12;	2.9608
434.44;	2.9659
434.77;	2.9708
435.09;	2.9755
435.41;	2.9800
435.74;	2.9843
436.06;	2.9884
436.38;	2.9923
436.71;	2.9959
437.03;	2.9994
437.35;	3.0026
437.68;	3.0057
438.00;	3.0085
438.32;	3.0111
438.65;	3.0134
438.97;	3.0156
439.29;	3.0175
439.62;	3.0193
439.94;	3.0208
440.26;	3.0221
440.59;	3.0232
440.91;	3.0240
441.23;	3.0246
441.56;	3.0251
441.88;	3.0253
442.20;	3.0252
442.53;	3.0250
442.85;	3.0246
443.17;	3.0239
443.50;	3.0230
443.82;	3.0219
444.14;	3.0205
444.47;	3.0190
444.79;	3.0172
445.11;	3.0152
445.44;	3.0131
445.76;	3.0106
446.08;	3.0080
446.41;	3.0052
446.73;	3.0021
447.05;	2.9988
447.38;	2.9953
447.70;	2.9916
448.02;	2.9877
448.35;	2.9836
448.67;	2.9793
448.99;	2.9747
449.32;	2.9700
449.64;	2.9650
449.96;	2.9599
450.29;	2.9545
450.61;	2.9490
450.93;	2.9432
451.26;	2.9372
451.58;	2.9310
451.90;	2.9247
452.23;	2.9181
452.55;	2.9113
452.87;	2.9044
453.20;	2.8972
453.52;	2.8899
453.84;	2.8824
454.17;	2.8747
454.49;	2.8667
454.81;	2.8587
455.14;	2.8504
455.46;	2.8419
455.78;	2.8333
456.11;	2.8245
456.43;	2.8155
456.75;	2.8063
457.08;	2.7970
457.40;	2.7875
457.72;	2.7778
458.05;	2.7680
458.37;	2.7580
458.69;	2.7478
459.02;	2.7375
459.34;	2.7270
459.66;	2.7164
459.98;	2.7056
460.31;	2.6947
460.63;	2.6836
460.95;	2.6723
461.28;	2.6609
461.60;	2.6494
461.92;	2.6377
462.25;	2.6259
462.57;	2.6140
462.89;	2.6019
463.22;	2.5897
463.54;	2.5774
463.86;	2.5649
464.19;	2.5523
464.51;	2.5396
464.83;	2.5268
465.16;	2.5139
465.48;	2.5008
465.80;	2.4876
466.13;	2.4744
466.45;	2.4610
466.77;	2.4475
467.10;	2.4339
467.42;	2.4202
467.74;	2.4064
468.07;	2.3926
468.39;	2.3786
468.71;	2.3645
469.04;	2.3504
469.36;	2.3362
469.68;	2.3219
470.01;	2.3075
470.33;	2.2930
470.65;	2.2785
470.98;	2.2639
471.30;	2.2492
471.62;	2.2345
471.95;	2.2197
472.27;	2.2048
472.59;	2.1899
472.92;	2.1749
473.24;	2.1599
473.56;	2.1448
473.89;	2.1297
474.21;	2.1145
474.53;	2.0993
474.86;	2.0841
475.18;	2.0688
475.50;	2.0534
475.83;	2.0381
476.15;	2.0227
476.47;	2.0073
476.80;	1.9918
477.12;	1.9764
477.44;	1.9609
477.77;	1.9454
478.09;	1.9299
478.41;	1.9143
478.74;	1.8988
479.06;	1.8833
479.38;	1.8677
479.71;	1.8521
480.03;	1.8366
480.35;	1.8210
480.68;	1.8055
481.00;	1.7899
481.32;	1.7744
481.65;	1.7589
481.97;	1.7433
482.29;	1.7278
482.62;	1.7123
482.94;	1.6969
483.26;	1.6814
483.59;	1.6660
483.91;	1.6506
484.23;	1.6352
484.56;	1.6198
484.88;	1.6045
485.20;	1.5892
485.53;	1.5740
485.85;	1.5588
486.17;	1.5436
486.50;	1.5285
486.82;	1.5134
487.14;	1.4983
487.47;	1.4833
487.79;	1.4683
488.11;	1.4534
488.44;	1.4386
488.76;	1.4238
489.08;	1.4090
489.41;	1.3943
489.73;	1.3797
490.05;	1.3651
490.38;	1.3505
490.70;	1.3361
491.02;	1.3217
491.35;	1.3073
491.67;	1.2931
491.99;	1.2789
492.32;	1.2647
492.64;	1.2507
492.96;	1.2367
493.29;	1.2227
493.61;	1.2089
493.93;	1.1951
494.26;	1.1814
494.58;	1.1678
494.90;	1.1542
495.23;	1.1408
495.55;	1.1274
495.87;	1.1141
496.20;	1.1009
496.52;	1.0877
496.84;	1.0747
497.17;	1.0617
497.49;	1.0488
497.81;	1.0360
498.14;	1.0233
498.46;	1.0107
498.78;	0.9981
499.11;	0.9857
499.43;	0.9733
499.75;	0.9610
500.08;	0.9489
500.40;	0.9368
500.72;	0.9248
501.05;	0.9129
501.37;	0.9011
501.69;	0.8894
502.02;	0.8778
502.34;	0.8663
502.66;	0.8548
502.98;	0.8435
503.31;	0.8323
503.63;	0.8212
503.95;	0.8101
504.28;	0.7992
504.60;	0.7883
504.92;	0.7776
505.25;	0.7670
505.57;	0.7564
505.89;	0.7460
506.22;	0.7356
506.54;	0.7254
506.86;	0.7152
507.19;	0.7052
507.51;	0.6952
507.83;	0.6853
508.16;	0.6756
508.48;	0.6659
508.80;	0.6564
509.13;	0.6469
509.45;	0.6376
509.77;	0.6283
510.10;	0.6191
510.42;	0.6101
510.74;	0.6011
511.07;	0.5923
511.39;	0.5835
511.71;	0.5748
512.04;	0.5663
512.36;	0.5578
512.68;	0.5494
513.01;	0.5411
513.33;	0.5329
513.65;	0.5249
513.98;	0.5169
514.30;	0.5090
514.62;	0.5012
514.95;	0.4935
515.27;	0.4859
515.59;	0.4784
515.92;	0.4709
516.24;	0.4636
516.56;	0.4564
516.89;	0.4492
517.21;	0.4422
517.53;	0.4352
517.86;	0.4284
518.18;	0.4216
518.50;	0.4149
518.83;	0.4083
519.15;	0.4018
519.47;	0.3954
519.80;	0.3891
520.12;	0.3829
520.44;	0.3767
520.77;	0.3706
521.09;	0.3647
521.41;	0.3588
521.74;	0.3530
522.06;	0.3472
522.38;	0.3416
522.71;	0.3361
523.03;	0.3306
523.35;	0.3252
523.68;	0.3199
524.00;	0.3146
524.32;	0.3095
524.65;	0.3044
524.97;	0.2994
525.29;	0.2945
525.62;	0.2897
525.94;	0.2849
526.26;	0.2803
526.59;	0.2757
526.91;	0.2711
527.23;	0.2667
527.56;	0.2623
527.88;	0.2580
528.20;	0.2537
528.53;	0.2496
528.85;	0.2455
529.17;	0.2414
529.50;	0.2375
529.82;	0.2336
530.14;	0.2298
530.47;	0.2260
530.79;	0.2223
531.11;	0.2187
531.44;	0.2152
531.76;	0.2117
532.08;	0.2083
532.41;	0.2049
532.73;	0.2016
533.05;	0.1984
533.38;	0.1952
533.70;	0.1921
534.02;	0.1890
534.35;	0.1860
534.67;	0.1831
534.99;	0.1802
535.32;	0.1774
535.64;	0.1746
535.96;	0.1719
536.29;	0.1692
536.61;	0.1666
536.93;	0.1641
537.26;	0.1616
537.58;	0.1592
537.90;	0.1568
538.23;	0.1544
538.55;	0.1522
538.87;	0.1499
539.20;	0.1477
539.52;	0.1456
539.84;	0.1435
540.17;	0.1415
540.49;	0.1395
540.81;	0.1375
541.14;	0.1356
541.46;	0.1337
541.78;	0.1319
542.11;	0.1302
542.43;	0.1284
542.75;	0.1267
543.08;	0.1251
543.40;	0.1235
543.72;	0.1219
544.05;	0.1204
544.37;	0.1189
544.69;	0.1175
545.02;	0.1161
545.34;	0.1147
545.66;	0.1134
545.98;	0.1121
546.31;	0.1109
546.63;	0.1096
546.95;	0.1085
547.28;	0.1073
547.60;	0.1062
547.92;	0.1051
548.25;	0.1041
548.57;	0.1031
548.89;	0.1021
549.22;	0.1011
549.54;	0.1002
549.86;	0.0993
550.19;	0.0985
550.51;	0.0977
550.83;	0.0969
551.16;	0.0961
551.48;	0.0954
551.80;	0.0946
552.13;	0.0940
552.45;	0.0933
552.77;	0.0927
553.10;	0.0921
553.42;	0.0915
553.74;	0.0910
554.07;	0.0904
554.39;	0.0899
554.71;	0.0895
555.04;	0.0890
555.36;	0.0886
555.68;	0.0882
556.01;	0.0878
556.33;	0.0874
556.65;	0.0871
556.98;	0.0868
557.30;	0.0865
557.62;	0.0862
557.95;	0.0860
558.27;	0.0857
558.59;	0.0855
558.92;	0.0854
559.24;	0.0852
559.56;	0.0850
559.89;	0.0849
560.21;	0.0848
560.53;	0.0847
560.86;	0.0846
561.18;	0.0845
561.50;	0.0845
561.83;	0.0845
562.15;	0.0845
562.47;	0.0845
562.80;	0.0845
563.12;	0.0845
563.44;	0.0846
563.77;	0.0847
564.09;	0.0848
564.41;	0.0849
564.74;	0.0850
565.06;	0.0851
565.38;	0.0852
565.71;	0.0854
566.03;	0.0856
566.35;	0.0858
566.68;	0.0860
567.00;	0.0862
567.32;	0.0864
567.65;	0.0866
567.97;	0.0869
568.29;	0.0871
568.62;	0.0874
568.94;	0.0877
569.26;	0.0880
569.59;	0.0883
569.91;	0.0886
570.23;	0.0890
570.56;	0.0893
570.88;	0.0897
571.20;	0.0900
571.53;	0.0904
571.85;	0.0908
572.17;	0.0912
572.50;	0.0916
572.82;	0.0920
573.14;	0.0924
573.47;	0.0928
573.79;	0.0933
574.11;	0.0937
574.44;	0.0942
574.76;	0.0946
575.08;	0.0951
575.41;	0.0956
575.73;	0.0961
576.05;	0.0966
576.38;	0.0971
576.70;	0.0976
577.02;	0.0981
577.35;	0.0987
577.67;	0.0992
577.99;	0.0998
578.32;	0.1003
578.64;	0.1009
578.96;	0.1015
579.29;	0.1020
579.61;	0.1026
579.93;	0.1032
580.26;	0.1038
580.58;	0.1044
580.90;	0.1050
581.23;	0.1056
581.55;	0.1062
581.87;	0.1069
582.20;	0.1075
582.52;	0.1081
582.84;	0.1088
583.17;	0.1094
583.49;	0.1101
583.81;	0.1108
584.14;	0.1114
584.46;	0.1121
584.78;	0.1128
585.11;	0.1135
585.43;	0.1141
585.75;	0.1148
586.08;	0.1155
586.40;	0.1162
586.72;	0.1169
587.05;	0.1177
587.37;	0.1184
587.69;	0.1191
588.02;	0.1198
588.34;	0.1205
588.66;	0.1213
588.98;	0.1220
589.31;	0.1228
589.63;	0.1235
589.95;	0.1243
590.28;	0.1250
590.60;	0.1258
590.92;	0.1265
591.25;	0.1273
591.57;	0.1281
591.89;	0.1289
592.22;	0.1296
592.54;	0.1304
592.86;	0.1312
593.19;	0.1320
593.51;	0.1328
593.83;	0.1336
594.16;	0.1344
594.48;	0.1352
594.80;	0.1360
595.13;	0.1368
595.45;	0.1376
595.77;	0.1384
596.10;	0.1392
596.42;	0.1401
596.74;	0.1409
597.07;	0.1417
597.39;	0.1425
597.71;	0.1434
598.04;	0.1442
598.36;	0.1450
598.68;	0.1459
599.01;	0.1467
599.33;	0.1476
599.65;	0.1484
599.98;	0.1492
600.30;	0.1501
600.62;	0.1509
600.95;	0.1518
601.27;	0.1527
601.59;	0.1535
601.92;	0.1544
602.24;	0.1552
602.56;	0.1561
602.89;	0.1570
603.21;	0.1578
603.53;	0.1587
603.86;	0.1596
604.18;	0.1604
604.50;	0.1613
604.83;	0.1622
605.15;	0.1631
605.47;	0.1640
605.80;	0.1648
606.12;	0.1657
606.44;	0.1666
606.77;	0.1675
607.09;	0.1684
607.41;	0.1693
607.74;	0.1701
608.06;	0.1710
608.38;	0.1719
608.71;	0.1728
609.03;	0.1737
609.35;	0.1746
609.68;	0.1755
610.00;	0.1764
610.32;	0.1773
610.65;	0.1782
610.97;	0.1791
611.29;	0.1800
611.62;	0.1809
611.94;	0.1818
612.26;	0.1827
612.59;	0.1836
612.91;	0.1845
613.23;	0.1854
613.56;	0.1863
613.88;	0.1872
614.20;	0.1881
614.53;	0.1890
614.85;	0.1899
615.17;	0.1908
615.50;	0.1917
615.82;	0.1926
616.14;	0.1935
616.47;	0.1944
616.79;	0.1953
617.11;	0.1962
617.44;	0.1971
617.76;	0.1980
618.08;	0.1989
618.41;	0.1998
618.73;	0.2007
619.05;	0.2016
619.38;	0.2024
619.70;	0.2033
620.02;	0.2042
620.35;	0.2051
620.67;	0.2060
620.99;	0.2069
621.32;	0.2078
621.64;	0.2087
621.96;	0.2096
622.29;	0.2105
622.61;	0.2114
622.93;	0.2123
623.26;	0.2131
623.58;	0.2140
623.90;	0.2149
624.23;	0.2158
624.55;	0.2167
624.87;	0.2175
625.20;	0.2184
625.52;	0.2193
625.84;	0.2202
626.17;	0.2210
626.49;	0.2219
626.81;	0.2228
627.14;	0.2237
627.46;	0.2245
627.78;	0.2254
628.11;	0.2262
628.43;	0.2271
628.75;	0.2280
629.08;	0.2288
629.40;	0.2297
629.72;	0.2305
630.05;	0.2314
630.37;	0.2322
630.69;	0.2331
631.02;	0.2339
631.34;	0.2348
631.66;	0.2356
631.98;	0.2364
632.31;	0.2373
632.63;	0.2381
632.95;	0.2389
633.28;	0.2397
633.60;	0.2406
633.92;	0.2414
634.25;	0.2422
634.57;	0.2430
634.89;	0.2438
635.22;	0.2446
635.54;	0.2454
635.86;	0.2462
636.19;	0.2470
636.51;	0.2478
636.83;	0.2486
637.16;	0.2494
637.48;	0.2502
637.80;	0.2510
638.13;	0.2518
638.45;	0.2525
638.77;	0.2533
639.10;	0.2541
639.42;	0.2548
639.74;	0.2556
640.07;	0.2564
640.39;	0.2571
640.71;	0.2579
641.04;	0.2586
641.36;	0.2594
641.68;	0.2601
642.01;	0.2608
642.33;	0.2616
642.65;	0.2623
642.98;	0.2630
643.30;	0.2637
643.62;	0.2644
643.95;	0.2651
644.27;	0.2659
644.59;	0.2666
644.92;	0.2672
645.24;	0.2679
645.56;	0.2686
645.89;	0.2693
646.21;	0.2700
646.53;	0.2707
646.86;	0.2713
647.18;	0.2720
647.50;	0.2727
647.83;	0.2733
648.15;	0.2740
648.47;	0.2746
648.80;	0.2753
649.12;	0.2759
649.44;	0.2765
649.77;	0.2771
650.09;	0.2778
650.41;	0.2784
650.74;	0.2790
651.06;	0.2796
651.38;	0.2802
651.71;	0.2808
652.03;	0.2814
652.35;	0.2820
652.68;	0.2825
653.00;	0.2831
653.32;	0.2837
653.65;	0.2842
653.97;	0.2848
654.29;	0.2854
654.62;	0.2859
654.94;	0.2864
655.26;	0.2870
655.59;	0.2875
655.91;	0.2880
656.23;	0.2885
656.56;	0.2891
656.88;	0.2896
657.20;	0.2901
657.53;	0.2906
657.85;	0.2910
658.17;	0.2915
658.50;	0.2920
658.82;	0.2925
659.14;	0.2929
659.47;	0.2934
659.79;	0.2939
660.11;	0.2943
660.44;	0.2947
660.76;	0.2952
661.08;	0.2956
661.41;	0.2960
661.73;	0.2964
662.05;	0.2968
662.38;	0.2972
662.70;	0.2976
663.02;	0.2980
663.35;	0.2984
663.67;	0.2988
663.99;	0.2992
664.32;	0.2995
664.64;	0.2999
664.96;	0.3002
665.29;	0.3006
665.61;	0.3009
665.93;	0.3012
666.26;	0.3016
666.58;	0.3019
666.90;	0.3022
667.23;	0.3025
667.55;	0.3028
667.87;	0.3031
668.20;	0.3034
668.52;	0.3036
668.84;	0.3039
669.17;	0.3042
669.49;	0.3044
669.81;	0.3047
670.14;	0.3049
670.46;	0.3052
670.78;	0.3054
671.11;	0.3056
671.43;	0.3058
671.75;	0.3060
672.08;	0.3062
672.40;	0.3064
672.72;	0.3066
673.05;	0.3068
673.37;	0.3070
673.69;	0.3071
674.02;	0.3073
674.34;	0.3074
674.66;	0.3076
674.98;	0.3077
675.31;	0.3078
675.63;	0.3080
675.95;	0.3081
676.28;	0.3082
676.60;	0.3083
676.92;	0.3084
677.25;	0.3085
677.57;	0.3085
677.89;	0.3086
678.22;	0.3087
678.54;	0.3087
678.86;	0.3088
679.19;	0.3088
679.51;	0.3089
679.83;	0.3089
680.16;	0.3089
680.48;	0.3089
680.80;	0.3090
681.13;	0.3090
681.45;	0.3089
681.77;	0.3089
682.10;	0.3089
682.42;	0.3089
682.74;	0.3088
683.07;	0.3088
683.39;	0.3088
683.71;	0.3087
684.04;	0.3086
684.36;	0.3086
684.68;	0.3085
685.01;	0.3084
685.33;	0.3083
685.65;	0.3082
685.98;	0.3081
686.30;	0.3080
686.62;	0.3079
686.95;	0.3077
687.27;	0.3076
687.59;	0.3075
687.92;	0.3073
688.24;	0.3072
688.56;	0.3070
688.89;	0.3068
689.21;	0.3066
689.53;	0.3065
689.86;	0.3063
690.18;	0.3061
690.50;	0.3059
690.83;	0.3056
691.15;	0.3054
691.47;	0.3052
691.80;	0.3050
692.12;	0.3047
692.44;	0.3045
692.77;	0.3042
693.09;	0.3040
693.41;	0.3037
693.74;	0.3034
694.06;	0.3031
694.38;	0.3028
694.71;	0.3026
695.03;	0.3023
695.35;	0.3019
695.68;	0.3016
696.00;	0.3013
696.32;	0.3010
696.65;	0.3006
696.97;	0.3003
697.29;	0.3000
697.62;	0.2996
697.94;	0.2992
698.26;	0.2989
698.59;	0.2985
698.91;	0.2981
699.23;	0.2977
699.56;	0.2973
699.88;	0.2969
700.20;	0.2965
700.53;	0.2961
700.85;	0.2957
701.17;	0.2953
701.50;	0.2948
701.82;	0.2944
702.14;	0.2939
702.47;	0.2935
702.79;	0.2930
703.11;	0.2926
703.44;	0.2921
703.76;	0.2916
704.08;	0.2912
704.41;	0.2907
704.73;	0.2902
705.05;	0.2897
705.38;	0.2892
705.70;	0.2887
706.02;	0.2881
706.35;	0.2876
706.67;	0.2871
706.99;	0.2866
707.32;	0.2860
707.64;	0.2855
707.96;	0.2849
708.29;	0.2844
708.61;	0.2838
708.93;	0.2832
709.26;	0.2827
709.58;	0.2821
709.90;	0.2815
710.23;	0.2809
710.55;	0.2803
710.87;	0.2797
711.20;	0.2791
711.52;	0.2785
711.84;	0.2779
712.17;	0.2773
712.49;	0.2766
712.81;	0.2760
713.14;	0.2754
713.46;	0.2747
713.78;	0.2741
714.11;	0.2734
714.43;	0.2728
714.75;	0.2721
715.08;	0.2715
715.40;	0.2708
715.72;	0.2701
716.05;	0.2695
716.37;	0.2688
716.69;	0.2681
717.02;	0.2674
717.34;	0.2667
717.66;	0.2660
717.98;	0.2653
718.31;	0.2646
718.63;	0.2639
718.95;	0.2632
719.28;	0.2624
719.60;	0.2617
719.92;	0.2610
720.25;	0.2602
720.57;	0.2595
720.89;	0.2588
721.22;	0.2580
721.54;	0.2573
721.86;	0.2565
722.19;	0.2558
722.51;	0.2550
722.83;	0.2542
723.16;	0.2535
723.48;	0.2527
723.80;	0.2519
724.13;	0.2511
724.45;	0.2504
724.77;	0.2496
725.10;	0.2488
725.42;	0.2480
725.74;	0.2472
726.07;	0.2464
726.39;	0.2456
726.71;	0.2448
727.04;	0.2440
727.36;	0.2432
727.68;	0.2424
728.01;	0.2415
728.33;	0.2407
728.65;	0.2399
728.98;	0.2391
729.30;	0.2383
729.62;	0.2374
729.95;	0.2366
730.27;	0.2358
730.59;	0.2349
730.92;	0.2341
731.24;	0.2332
731.56;	0.2324
731.89;	0.2315
732.21;	0.2307
732.53;	0.2298
732.86;	0.2290
733.18;	0.2281
733.50;	0.2273
733.83;	0.2264
734.15;	0.2255
734.47;	0.2247
734.80;	0.2238
735.12;	0.2229
735.44;	0.2221
735.77;	0.2212
736.09;	0.2203
736.41;	0.2195
736.74;	0.2186
737.06;	0.2177
737.38;	0.2168
737.71;	0.2159
738.03;	0.2151
738.35;	0.2142
738.68;	0.2133
739.00;	0.2124
739.32;	0.2115
739.65;	0.2106
739.97;	0.2097
740.29;	0.2088
740.62;	0.2080
740.94;	0.2071
741.26;	0.2062
741.59;	0.2053
741.91;	0.2044
742.23;	0.2035
742.56;	0.2026
742.88;	0.2017
743.20;	0.2008
743.53;	0.1999
743.85;	0.1990
744.17;	0.1981
744.50;	0.1972
744.82;	0.1963
745.14;	0.1954
745.47;	0.1945
745.79;	0.1936
746.11;	0.1927
746.44;	0.1918
746.76;	0.1909
747.08;	0.1900
747.41;	0.1891
747.73;	0.1881
748.05;	0.1872
748.38;	0.1863
748.70;	0.1854
749.02;	0.1845
749.35;	0.1836
749.67;	0.1827
749.99;	0.1818
750.32;	0.1809
750.64;	0.1800
750.96;	0.1791
751.29;	0.1782
751.61;	0.1773
751.93;	0.1764
752.26;	0.1755
752.58;	0.1746
752.90;	0.1737
753.23;	0.1728
753.55;	0.1719
753.87;	0.1710
754.20;	0.1701
754.52;	0.1692
754.84;	0.1683
755.17;	0.1674
755.49;	0.1665
755.81;	0.1656
756.14;	0.1647
756.46;	0.1639
756.78;	0.1630
757.11;	0.1621
757.43;	0.1612
757.75;	0.1603
758.08;	0.1594
758.40;	0.1585
758.72;	0.1576
759.05;	0.1568
759.37;	0.1559
759.69;	0.1550
760.02;	0.1541
760.34;	0.1533
760.66;	0.1524
760.98;	0.1515
761.31;	0.1506
761.63;	0.1498
761.95;	0.1489
762.28;	0.1480
762.60;	0.1472
762.92;	0.1463
763.25;	0.1454
763.57;	0.1446
763.89;	0.1437
764.22;	0.1429
764.54;	0.1420
764.86;	0.1411
765.19;	0.1403
765.51;	0.1394
765.83;	0.1386
766.16;	0.1378
766.48;	0.1369
766.80;	0.1361
767.13;	0.1352
767.45;	0.1344
767.77;	0.1336
768.10;	0.1327
768.42;	0.1319
768.74;	0.1311
769.07;	0.1302
769.39;	0.1294
769.71;	0.1286
770.04;	0.1278
770.36;	0.1269
770.68;	0.1261
771.01;	0.1253
771.33;	0.1245
771.65;	0.1237
771.98;	0.1229
772.30;	0.1221
772.62;	0.1213
772.95;	0.1205
773.27;	0.1197
773.59;	0.1189
773.92;	0.1181
774.24;	0.1173
774.56;	0.1165
774.89;	0.1157
775.21;	0.1150
775.53;	0.1142
775.86;	0.1134
776.18;	0.1126
776.50;	0.1119
776.83;	0.1111
777.15;	0.1103
777.47;	0.1096
777.80;	0.1088
778.12;	0.1080
778.44;	0.1073
778.77;	0.1065
779.09;	0.1058
779.41;	0.1050
779.74;	0.1043
780.06;	0.1036
780.38;	0.1028
780.71;	0.1021
781.03;	0.1014
781.35;	0.1006
781.68;	0.0999
782.00;	0.0992
