wavelength, nm;	absorption
356.00;	0.2592
356.40;	0.2655
356.81;	0.2719
357.21;	0.2785
357.62;	0.2851
358.02;	0.2919
358.43;	0.2989
358.83;	0.3059
359.24;	0.3131
359.64;	0.3205
360.05;	0.3279
360.45;	0.3355
360.86;	0.3433
361.26;	0.3511
361.66;	0.3592
362.07;	0.3673
362.47;	0.3756
362.88;	0.3840
363.28;	0.3926
363.69;	0.4014
364.09;	0.4102
364.50;	0.4193
364.90;	0.4285
365.31;	0.4378
365.71;	0.4473
366.12;	0.4569
366.52;	0.4667
366.92;	0.4767
367.33;	0.4868
367.73;	0.4970
368.14;	0.5075
368.54;	0.5180
368.95;	0.5288
369.35;	0.5397
369.76;	0.5507
370.16;	0.5620
370.57;	0.5734
370.97;	0.5849
371.38;	0.5967
371.78;	0.6085
372.18;	0.6206
372.59;	0.6328
372.99;	0.6452
373.40;	0.6578
373.80;	0.6705
374.21;	0.6834
374.61;	0.6965
375.02;	0.7097
375.42;	0.7231
375.83;	0.7367
376.23;	0.7504
376.64;	0.7644
377.04;	0.7784
377.44;	0.7927
377.85;	0.8071
378.25;	0.8217
378.66;	0.8365
379.06;	0.8514
379.47;	0.8665
379.87;	0.8818
380.28;	0.8972
380.68;	0.9128
381.09;	0.9286
381.49;	0.9445
381.90;	0.9606
382.30;	0.9769
382.70;	0.9933
383.11;	1.0099
383.51;	1.0266
383.92;	1.0435
384.32;	1.0606
384.73;	1.0778
385.13;	1.0952
385.54;	1.1127
385.94;	1.1304
386.35;	1.1482
386.75;	1.1662
387.16;	1.1843
387.56;	1.2026
387.96;	1.2210
388.37;	1.2396
388.77;	1.2583
389.18;	1.2771
389.58;	1.2961
389.99;	1.3152
390.39;	1.3344
390.80;	1.3537
391.20;	1.3732
391.61;	1.3928
392.01;	1.4126
392.42;	1.4324
392.82;	1.4524
393.22;	1.4724
393.63;	1.4926
394.03;	1.5129
394.44;	1.5333
394.84;	1.5538
395.25;	1.5743
395.65;	1.5950
396.06;	1.6158
396.46;	1.6366
396.87;	1.6575
397.27;	1.6785
397.68;	1.6996
398.08;	1.7208
398.49;	1.7420
398.89;	1.7632
399.29;	1.7846
399.70;	1.8059
400.10;	1.8274
400.51;	1.8489
400.91;	1.8704
401.32;	1.8919
401.72;	1.9135
402.13;	1.9351
402.53;	1.9567
402.94;	1.9784
403.34;	2.0000
403.75;	2.0217
404.15;	2.0434
404.55;	2.0651
404.96;	2.0867
405.36;	2.1084
405.77;	2.1300
406.17;	2.1516
406.58;	2.1732
406.98;	2.1948
407.39;	2.2163
407.79;	2.2378
408.20;	2.2592
408.60;	2.2806
409.01;	2.3019
409.41;	2.3231
409.81;	2.3443
410.22;	2.3654
410.62;	2.3864
411.03;	2.4074
411.43;	2.4282
411.84;	2.4490
412.24;	2.4696
412.65;	2.4901
413.05;	2.5106
413.46;	2.5309
413.86;	2.5511
414.27;	2.5711
414.67;	2.5910
415.07;	2.6108
415.48;	2.6304
415.88;	2.6499
416.29;	2.6692
416.69;	2.6883
417.10;	2.7073
417.50;	2.7261
417.91;	2.7447
418.31;	2.7632
418.72;	2.7814
419.12;	2.7995
419.53;	2.8173
419.93;	2.8350
420.33;	2.8524
420.74;	2.8696
421.14;	2.8866
421.55;	2.9033
421.95;	2.9199
422.36;	2.9361
422.76;	2.9522
423.17;	2.9680
423.57;	2.9835
423.98;	2.9988
424.38;	3.0138
424.79;	3.0285
425.19;	3.0430
425.59;	3.0572
426.00;	3.0711
426.40;	3.0848
426.81;	3.0981
427.21;	3.1111
427.62;	3.1239
428.02;	3.1363
428.43;	3.1484
428.83;	3.1603
429.24;	3.1718
429.64;	3.1830
430.05;	3.1938
430.45;	3.2044
430.85;	3.2146
431.26;	3.2244
431.66;	3.2340
432.07;	3.2432
432.47;	3.2520
432.88;	3.2605
433.28;	3.2687
433.69;	3.2765
434.09;	3.2840
434.50;	3.2911
434.90;	3.2978
435.31;	3.3042
435.71;	3.3102
436.11;	3.3159
436.52;	3.3212
436.92;	3.3261
437.33;	3.3306
437.73;	3.3348
438.14;	3.3386
438.54;	3.3420
438.95;	3.3451
439.35;	3.3478
439.76;	3.3501
440.16;	3.3520
440.57;	3.3535
440.97;	3.3547
441.37;	3.3555
441.78;	3.3559
442.18;	3.3559
442.59;	3.3555
442.99;	3.3548
443.40;	3.3537
443.80;	3.3522
444.21;	3.3503
444.61;	3.3480
445.02;	3.3454
445.42;	3.3424
445.83;	3.3390
446.23;	3.3353
446.63;	3.3311
447.04;	3.3266
447.44;	3.3217
447.85;	3.3165
448.25;	3.3109
448.66;	3.3049
449.06;	3.2986
449.47;	3.2919
449.87;	3.2848
450.28;	3.2774
450.68;	3.2696
451.09;	3.2615
451.49;	3.2530
451.89;	3.2442
452.30;	3.2351
452.70;	3.2256
453.11;	3.2157
453.51;	3.2056
453.92;	3.1951
454.32;	3.1842
454.73;	3.1731
455.13;	3.1616
455.54;	3.1498
455.94;	3.1378
456.35;	3.1254
456.75;	3.1127
457.15;	3.0997
457.56;	3.0864
457.96;	3.0728
458.37;	3.0589
458.77;	3.0447
459.18;	3.0303
459.58;	3.0156
459.99;	3.0006
460.39;	2.9854
460.80;	2.9699
461.20;	2.9541
461.61;	2.9381
462.01;	2.9219
462.41;	2.9054
462.82;	2.8886
463.22;	2.8717
463.63;	2.8545
464.03;	2.8371
464.44;	2.8195
464.84;	2.8017
465.25;	2.7837
465.65;	2.7655
466.06;	2.7471
466.46;	2.7285
466.87;	2.7097
467.27;	2.6908
467.67;	2.6717
468.08;	2.6524
468.48;	2.6329
468.89;	2.6133
469.29;	2.5936
469.70;	2.5737
470.10;	2.5537
470.51;	2.5335
470.91;	2.5133
471.32;	2.4929
471.72;	2.4724
472.13;	2.4517
472.53;	2.4310
472.93;	2.4102
473.34;	2.3893
473.74;	2.3683
474.15;	2.3472
474.55;	2.3261
474.96;	2.3048
475.36;	2.2836
475.77;	2.2622
476.17;	2.2408
476.58;	2.2194
476.98;	2.1979
477.39;	2.1763
477.79;	2.1548
478.20;	2.1332
478.60;	2.1116
479.00;	2.0900
479.41;	2.0683
479.81;	2.0467
480.22;	2.0250
480.62;	2.0034
481.03;	1.9817
481.43;	1.9601
481.84;	1.9385
482.24;	1.9169
482.65;	1.8954
483.05;	1.8738
483.46;	1.8524
483.86;	1.8309
484.26;	1.8095
484.67;	1.7881
485.07;	1.7668
485.48;	1.7456
485.88;	1.7244
486.29;	1.7033
486.69;	1.6822
487.10;	1.6613
487.50;	1.6404
487.91;	1.6196
488.31;	1.5988
488.72;	1.5782
489.12;	1.5576
489.52;	1.5372
489.93;	1.5168
490.33;	1.4966
490.74;	1.4764
491.14;	1.4564
491.55;	1.4364
491.95;	1.4166
492.36;	1.3969
492.76;	1.3773
493.17;	1.3579
493.57;	1.3386
493.98;	1.3194
494.38;	1.3003
494.78;	1.2813
495.19;	1.2625
495.59;	1.2439
496.00;	1.2253
496.40;	1.2070
496.81;	1.1887
497.21;	1.1706
497.62;	1.1527
498.02;	1.1349
498.43;	1.1172
498.83;	1.0997
499.24;	1.0824
499.64;	1.0652
500.04;	1.0482
500.45;	1.0313
500.85;	1.0146
501.26;	0.9981
501.66;	0.9817
502.07;	0.9655
502.47;	0.9494
502.88;	0.9335
503.28;	0.9178
503.69;	0.9023
504.09;	0.8869
504.50;	0.8716
504.90;	0.8566
505.30;	0.8417
505.71;	0.8270
506.11;	0.8124
506.52;	0.7981
506.92;	0.7839
507.33;	0.7698
507.73;	0.7560
508.14;	0.7423
508.54;	0.7288
508.95;	0.7154
509.35;	0.7022
509.76;	0.6892
510.16;	0.6764
510.56;	0.6637
510.97;	0.6512
511.37;	0.6389
511.78;	0.6267
512.18;	0.6147
512.59;	0.6029
512.99;	0.5912
513.40;	0.5797
513.80;	0.5684
514.21;	0.5572
514.61;	0.5462
515.02;	0.5354
515.42;	0.5247
515.82;	0.5142
516.23;	0.5039
516.63;	0.4937
517.04;	0.4836
517.44;	0.4738
517.85;	0.4641
518.25;	0.4545
518.66;	0.4451
519.06;	0.4358
519.47;	0.4267
519.87;	0.4178
520.28;	0.4090
520.68;	0.4003
521.08;	0.3918
521.49;	0.3835
521.89;	0.3753
522.30;	0.3672
522.70;	0.3593
523.11;	0.3515
523.51;	0.3439
523.92;	0.3364
524.32;	0.3290
524.73;	0.3218
525.13;	0.3147
525.54;	0.3077
525.94;	0.3009
526.34;	0.2942
526.75;	0.2876
527.15;	0.2812
527.56;	0.2749
527.96;	0.2687
528.37;	0.2626
528.77;	0.2566
529.18;	0.2508
529.58;	0.2451
529.99;	0.2395
530.39;	0.2340
530.80;	0.2287
531.20;	0.2234
531.60;	0.2182
532.01;	0.2132
532.41;	0.2083
532.82;	0.2035
533.22;	0.1987
533.63;	0.1941
534.03;	0.1896
534.44;	0.1852
534.84;	0.1809
535.25;	0.1767
535.65;	0.1725
536.06;	0.1685
536.46;	0.1646
536.86;	0.1607
537.27;	0.1570
537.67;	0.1533
538.08;	0.1497
538.48;	0.1463
538.89;	0.1428
539.29;	0.1395
539.70;	0.1363
540.10;	0.1331
540.51;	0.1300
540.91;	0.1270
541.32;	0.1241
541.72;	0.1212
542.12;	0.1184
542.53;	0.1157
542.93;	0.1131
543.34;	0.1105
543.74;	0.1080
544.15;	0.1056
544.55;	0.1032
544.96;	0.1009
545.36;	0.0986
545.77;	0.0965
546.17;	0.0943
546.58;	0.0923
546.98;	0.0903
547.38;	0.0883
547.79;	0.0864
548.19;	0.0846
548.60;	0.0828
549.00;	0.0811
549.41;	0.0794
549.81;	0.0778
550.22;	0.0762
550.62;	0.0747
551.03;	0.0732
551.43;	0.0718
551.84;	0.0704
552.24;	0.0690
552.64;	0.0677
553.05;	0.0665
553.45;	0.0653
553.86;	0.0641
554.26;	0.0630
554.67;	0.0619
555.07;	0.0608
555.48;	0.0598
555.88;	0.0588
556.29;	0.0579
556.69;	0.0570
557.10;	0.0561
557.50;	0.0553
557.91;	0.0545
558.31;	0.0537
558.71;	0.0529
559.12;	0.0522
559.52;	0.0515
559.93;	0.0509
560.33;	0.0503
560.74;	0.0497
561.14;	0.0491
561.55;	0.0485
561.95;	0.0480
562.36;	0.0475
562.76;	0.0471
563.17;	0.0466
563.57;	0.0462
563.97;	0.0458
564.38;	0.0454
564.78;	0.0451
565.19;	0.0447
565.59;	0.0444
566.00;	0.0441
566.40;	0.0439
566.81;	0.0436
567.21;	0.0434
567.62;	0.0432
568.02;	0.0430
568.43;	0.0428
568.83;	0.0426
569.23;	0.0425
569.64;	0.0424
570.04;	0.0423
570.45;	0.0422
570.85;	0.0421
571.26;	0.0420
571.66;	0.0420
572.07;	0.0419
572.47;	0.0419
572.88;	0.0419
573.28;	0.0419
573.69;	0.0419
574.09;	0.0419
574.49;	0.0420
574.90;	0.0420
575.30;	0.0421
575.71;	0.0421
576.11;	0.0422
576.52;	0.0423
576.92;	0.0424
577.33;	0.0425
577.73;	0.0427
578.14;	0.0428
578.54;	0.0429
578.95;	0.0431
579.35;	0.0432
579.75;	0.0434
580.16;	0.0436
580.56;	0.0438
580.97;	0.0440
581.37;	0.0442
581.78;	0.0444
582.18;	0.0446
582.59;	0.0448
582.99;	0.0450
583.40;	0.0453
583.80;	0.0455
584.21;	0.0458
584.61;	0.0460
585.01;	0.0463
585.42;	0.0465
585.82;	0.0468
586.23;	0.0471
586.63;	0.0474
587.04;	0.0477
587.44;	0.0479
587.85;	0.0482
588.25;	0.0485
588.66;	0.0489
589.06;	0.0492
589.47;	0.0495
589.87;	0.0498
590.27;	0.0501
590.68;	0.0505
591.08;	0.0508
591.49;	0.0511
591.89;	0.0515
592.30;	0.0518
592.70;	0.0522
593.11;	0.0525
593.51;	0.0529
593.92;	0.0532
594.32;	0.0536
594.73;	0.0540
595.13;	0.0543
595.53;	0.0547
595.94;	0.0551
596.34;	0.0554
596.75;	0.0558
597.15;	0.0562
597.56;	0.0566
597.96;	0.0570
598.37;	0.0574
598.77;	0.0578
599.18;	0.0582
599.58;	0.0586
599.99;	0.0590
600.39;	0.0594
600.79;	0.0598
601.20;	0.0602
601.60;	0.0606
602.01;	0.0610
602.41;	0.0614
602.82;	0.0618
603.22;	0.0622
603.63;	0.0626
604.03;	0.0630
604.44;	0.0635
604.84;	0.0639
605.25;	0.0643
605.65;	0.0647
606.05;	0.0652
606.46;	0.0656
606.86;	0.0660
607.27;	0.0664
607.67;	0.0669
608.08;	0.0673
608.48;	0.0677
608.89;	0.0682
609.29;	0.0686
609.70;	0.0690
610.10;	0.0694
610.51;	0.0699
610.91;	0.0703
611.31;	0.0708
611.72;	0.0712
612.12;	0.0716
612.53;	0.0721
612.93;	0.0725
613.34;	0.0729
613.74;	0.0734
614.15;	0.0738
614.55;	0.0743
614.96;	0.0747
615.36;	0.0751
615.77;	0.0756
616.17;	0.0760
616.57;	0.0764
616.98;	0.0769
617.38;	0.0773
617.79;	0.0778
618.19;	0.0782
618.60;	0.0786
619.00;	0.0791
619.41;	0.0795
619.81;	0.0800
620.22;	0.0804
620.62;	0.0808
621.03;	0.0813
621.43;	0.0817
621.83;	0.0821
622.24;	0.0826
622.64;	0.0830
623.05;	0.0834
623.45;	0.0839
623.86;	0.0843
624.26;	0.0847
624.67;	0.0852
625.07;	0.0856
625.48;	0.0860
625.88;	0.0865
626.29;	0.0869
626.69;	0.0873
627.09;	0.0877
627.50;	0.0882
627.90;	0.0886
628.31;	0.0890
628.71;	0.0894
629.12;	0.0898
629.52;	0.0903
629.93;	0.0907
630.33;	0.0911
630.74;	0.0915
631.14;	0.0919
631.55;	0.0923
631.95;	0.0928
632.36;	0.0932
632.76;	0.0936
633.16;	0.0940
633.57;	0.0944
633.97;	0.0948
634.38;	0.0952
634.78;	0.0956
635.19;	0.0960
635.59;	0.0964
636.00;	0.0968
636.40;	0.0972
636.81;	0.0975
637.21;	0.0979
637.62;	0.0983
638.02;	0.0987
638.42;	0.0991
638.83;	0.0995
639.23;	0.0998
639.64;	0.1002
640.04;	0.1006
640.45;	0.1009
640.85;	0.1013
641.26;	0.1017
641.66;	0.1020
642.07;	0.1024
642.47;	0.1028
642.88;	0.1031
643.28;	0.1035
643.68;	0.1038
644.09;	0.1042
644.49;	0.1045
644.90;	0.1049
645.30;	0.1052
645.71;	0.1055
646.11;	0.1059
646.52;	0.1062
646.92;	0.1065
647.33;	0.1069
647.73;	0.1072
648.14;	0.1075
648.54;	0.1078
648.94;	0.1081
649.35;	0.1084
649.75;	0.1087
650.16;	0.1091
650.56;	0.1094
650.97;	0.1097
651.37;	0.1099
651.78;	0.1102
652.18;	0.1105
652.59;	0.1108
652.99;	0.1111
653.40;	0.1114
653.80;	0.1116
654.20;	0.1119
654.61;	0.1122
655.01;	0.1125
655.42;	0.1127
655.82;	0.1130
656.23;	0.1132
656.63;	0.1135
657.04;	0.1137
657.44;	0.1140
657.85;	0.1142
658.25;	0.1144
658.66;	0.1147
659.06;	0.1149
659.46;	0.1151
659.87;	0.1154
660.27;	0.1156
660.68;	0.1158
661.08;	0.1160
661.49;	0.1162
661.89;	0.1164
662.30;	0.1166
662.70;	0.1168
663.11;	0.1170
663.51;	0.1172
663.92;	0.1174
664.32;	0.1175
664.72;	0.1177
665.13;	0.1179
665.53;	0.1180
665.94;	0.1182
666.34;	0.1184
666.75;	0.1185
667.15;	0.1187
667.56;	0.1188
667.96;	0.1190
668.37;	0.1191
668.77;	0.1192
669.18;	0.1194
669.58;	0.1195
669.98;	0.1196
670.39;	0.1197
670.79;	0.1198
671.20;	0.1199
671.60;	0.1201
672.01;	0.1202
672.41;	0.1202
672.82;	0.1203
673.22;	0.1204
673.63;	0.1205
674.03;	0.1206
674.44;	0.1207
674.84;	0.1207
675.24;	0.1208
675.65;	0.1209
676.05;	0.1209
676.46;	0.1210
676.86;	0.1210
677.27;	0.1210
677.67;	0.1211
678.08;	0.1211
678.48;	0.1212
678.89;	0.1212
679.29;	0.1212
679.70;	0.1212
680.10;	0.1212
680.50;	0.1212
680.91;	0.1212
681.31;	0.1212
681.72;	0.1212
682.12;	0.1212
682.53;	0.1212
682.93;	0.1212
683.34;	0.1212
683.74;	0.1211
684.15;	0.1211
684.55;	0.1211
684.96;	0.1210
685.36;	0.1210
685.76;	0.1209
686.17;	0.1209
686.57;	0.1208
686.98;	0.1208
687.38;	0.1207
687.79;	0.1206
688.19;	0.1205
688.60;	0.1205
689.00;	0.1204
689.41;	0.1203
689.81;	0.1202
690.22;	0.1201
690.62;	0.1200
691.02;	0.1199
691.43;	0.1198
691.83;	0.1197
692.24;	0.1195
692.64;	0.1194
693.05;	0.1193
693.45;	0.1192
693.86;	0.1190
694.26;	0.1189
694.67;	0.1187
695.07;	0.1186
695.48;	0.1184
695.88;	0.1183
696.28;	0.1181
696.69;	0.1180
697.09;	0.1178
697.50;	0.1176
697.90;	0.1174
698.31;	0.1173
698.71;	0.1171
699.12;	0.1169
699.52;	0.1167
699.93;	0.1165
700.33;	0.1163
700.74;	0.1161
701.14;	0.1159
701.54;	0.1157
701.95;	0.1155
702.35;	0.1152
702.76;	0.1150
703.16;	0.1148
703.57;	0.1146
703.97;	0.1143
704.38;	0.1141
704.78;	0.1138
705.19;	0.1136
705.59;	0.1133
706.00;	0.1131
706.40;	0.1128
706.80;	0.1126
707.21;	0.1123
707.61;	0.1120
708.02;	0.1118
708.42;	0.1115
708.83;	0.1112
709.23;	0.1109
709.64;	0.1107
710.04;	0.1104
710.45;	0.1101
710.85;	0.1098
711.26;	0.1095
711.66;	0.1092
712.07;	0.1089
712.47;	0.1086
712.87;	0.1083
713.28;	0.1080
713.68;	0.1076
714.09;	0.1073
714.49;	0.1070
714.90;	0.1067
715.30;	0.1063
715.71;	0.1060
716.11;	0.1057
716.52;	0.1053
716.92;	0.1050
717.33;	0.1047
717.73;	0.1043
718.13;	0.1040
718.54;	0.1036
718.94;	0.1033
719.35;	0.1029
719.75;	0.1026
720.16;	0.1022
720.56;	0.1018
720.97;	0.1015
721.37;	0.1011
721.78;	0.1007
722.18;	0.1004
722.59;	0.1000
722.99;	0.0996
723.39;	0.0992
723.80;	0.0989
724.20;	0.0985
724.61;	0.0981
725.01;	0.0977
725.42;	0.0973
725.82;	0.0969
726.23;	0.0965
726.63;	0.0961
727.04;	0.0957
727.44;	0.0953
727.85;	0.0949
728.25;	0.0945
728.65;	0.0941
729.06;	0.0937
729.46;	0.0933
729.87;	0.0929
730.27;	0.0925
730.68;	0.0921
731.08;	0.0917
731.49;	0.0913
731.89;	0.0909
732.30;	0.0904
732.70;	0.0900
733.11;	0.0896
733.51;	0.0892
733.91;	0.0888
734.32;	0.0883
734.72;	0.0879
735.13;	0.0875
735.53;	0.0871
735.94;	0.0866
736.34;	0.0862
736.75;	0.0858
737.15;	0.0853
737.56;	0.0849
737.96;	0.0845
738.37;	0.0840
738.77;	0.0836
739.17;	0.0832
739.58;	0.0827
739.98;	0.0823
740.39;	0.0819
740.79;	0.0814
741.20;	0.0810
741.60;	0.0805
742.01;	0.0801
742.41;	0.0797
742.82;	0.0792
743.22;	0.0788
743.63;	0.0783
744.03;	0.0779
744.43;	0.0774
744.84;	0.0770
745.24;	0.0766
745.65;	0.0761
746.05;	0.0757
746.46;	0.0752
746.86;	0.0748
747.27;	0.0743
747.67;	0.0739
748.08;	0.0735
748.48;	0.0730
748.89;	0.0726
749.29;	0.0721
749.69;	0.0717
750.10;	0.0712
750.50;	0.0708
750.91;	0.0703
751.31;	0.0699
751.72;	0.0695
752.12;	0.0690
752.53;	0.0686
752.93;	0.0681
753.34;	0.0677
753.74;	0.0672
754.15;	0.0668
754.55;	0.0664
754.95;	0.0659
755.36;	0.0655
755.76;	0.0651
756.17;	0.0646
756.57;	0.0642
756.98;	0.0637
757.38;	0.0633
757.79;	0.0629
758.19;	0.0624
758.60;	0.0620
759.00;	0.0616
759.41;	0.0611
759.81;	0.0607
760.21;	0.0603
760.62;	0.0598
761.02;	0.0594
761.43;	0.0590
761.83;	0.0586
762.24;	0.0581
762.64;	0.0577
763.05;	0.0573
763.45;	0.0569
763.86;	0.0564
764.26;	0.0560
764.67;	0.0556
765.07;	0.0552
765.47;	0.0548
765.88;	0.0543
766.28;	0.0539
766.69;	0.0535
767.09;	0.0531
767.50;	0.0527
767.90;	0.0523
768.31;	0.0519
768.71;	0.0515
769.12;	0.0511
769.52;	0.0507
769.93;	0.0502
770.33;	0.0498
770.73;	0.0494
771.14;	0.0490
771.54;	0.0486
771.95;	0.0483
772.35;	0.0479
772.76;	0.0475
773.16;	0.0471
773.57;	0.0467
773.97;	0.0463
774.38;	0.0459
774.78;	0.0455
775.19;	0.0451
775.59;	0.0448
775.99;	0.0444
776.40;	0.0440
776.80;	0.0436
777.21;	0.0432
777.61;	0.0429
778.02;	0.0425
778.42;	0.0421
778.83;	0.0418
779.23;	0.0414
779.64;	0.0410
780.04;	0.0407
780.45;	0.0403
780.85;	0.0399
781.25;	0.0396
781.66;	0.0392
782.06;	0.0389
782.47;	0.0385
782.87;	0.0382
783.28;	0.0378
783.68;	0.0375
784.09;	0.0371
784.49;	0.0368
784.90;	0.0364
785.30;	0.0361
785.71;	0.0358
786.11;	0.0354
786.51;	0.0351
786.92;	0.0347
787.32;	0.0344
787.73;	0.0341
788.13;	0.0338
788.54;	0.0334
788.94;	0.0331
789.35;	0.0328
789.75;	0.0325
790.16;	0.0322
790.56;	0.0318
790.97;	0.0315
791.37;	0.0312
791.78;	0.0309
792.18;	0.0306
792.58;	0.0303
792.99;	0.0300
793.39;	0.0297
793.80;	0.0294
794.20;	0.0291
794.61;	0.0288
795.01;	0.0285
795.42;	0.0282
795.82;	0.0279
796.23;	0.0276
796.63;	0.0273
797.04;	0.0271
797.44;	0.0268
797.84;	0.0265
798.25;	0.0262
798.65;	0.0259
799.06;	0.0257
799.46;	0.0254
799.87;	0.0251
800.27;	0.0249
800.68;	0.0246
801.08;	0.0243
801.49;	0.0241
801.89;	0.0238
802.30;	0.0235
802.70;	0.0233
803.10;	0.0230
803.51;	0.0228
803.91;	0.0225
804.32;	0.0223
804.72;	0.0220
805.13;	0.0218
805.53;	0.0216
805.94;	0.0213
806.34;	0.0211
806.75;	0.0208
807.15;	0.0206
807.56;	0.0204
807.96;	0.0201
808.36;	0.0199
808.77;	0.0197
809.17;	0.0195
809.58;	0.0192
809.98;	0.0190
810.39;	0.0188
810.79;	0.0186
811.20;	0.0184
811.60;	0.0181
812.01;	0.0179
812.41;	0.0177
812.82;	0.0175
813.22;	0.0173
813.62;	0.0171
814.03;	0.0169
814.43;	0.0167
814.84;	0.0165
815.24;	0.0163
815.65;	0.0161
816.05;	0.0159
816.46;	0.0157
816.86;	0.0155
817.27;	0.0153
817.67;	0.0151
818.08;	0.0150
818.48;	0.0148
818.88;	0.0146
819.29;	0.0144
819.69;	0.0142
820.10;	0.0141
820.50;	0.0139
820.91;	0.0137
821.31;	0.0135
821.72;	0.0134
822.12;	0.0132
822.53;	0.0130
822.93;	0.0129
823.34;	0.0127
823.74;	0.0125
824.14;	0.0124
824.55;	0.0122
824.95;	0.0121
825.36;	0.0119
825.76;	0.0117
826.17;	0.0116
826.57;	0.0114
826.98;	0.0113
827.38;	0.0111
827.79;	0.0110
828.19;	0.0109
828.60;	0.0107
829.00;	0.0106
