wavelength, nm;	absorption
394.00;	1.2060
394.24;	1.2157
394.49;	1.2255
394.73;	1.2354
394.97;	1.2452
395.22;	1.2551
395.46;	1.2650
395.70;	1.2750
395.95;	1.2850
396.19;	1.2950
396.44;	1.3050
396.68;	1.3150
396.92;	1.3251
397.17;	1.3352
397.41;	1.3453
397.65;	1.3554
397.90;	1.3655
398.14;	1.3757
398.38;	1.3859
398.63;	1.3961
398.87;	1.4063
399.11;	1.4166
399.36;	1.4268
399.60;	1.4371
399.85;	1.4474
400.09;	1.4577
400.33;	1.4680
400.58;	1.4783
400.82;	1.4886
401.06;	1.4990
401.31;	1.5093
401.55;	1.5197
401.79;	1.5301
402.04;	1.5405
402.28;	1.5509
402.52;	1.5612
402.77;	1.5716
403.01;	1.5820
403.26;	1.5925
403.50;	1.6029
403.74;	1.6133
403.99;	1.6237
404.23;	1.6341
404.47;	1.6445
404.72;	1.6549
404.96;	1.6653
405.20;	1.6757
405.45;	1.6861
405.69;	1.6965
405.93;	1.7069
406.18;	1.7173
406.42;	1.7277
406.67;	1.7380
406.91;	1.7484
407.15;	1.7587
407.40;	1.7691
407.64;	1.7794
407.88;	1.7897
408.13;	1.8000
408.37;	1.8103
408.61;	1.8205
408.86;	1.8308
409.10;	1.8410
409.34;	1.8512
409.59;	1.8614
409.83;	1.8715
410.07;	1.8817
410.32;	1.8918
410.56;	1.9019
410.81;	1.9120
411.05;	1.9220
411.29;	1.9321
411.54;	1.9420
411.78;	1.9520
412.02;	1.9620
412.27;	1.9719
412.51;	1.9817
412.75;	1.9916
413.00;	2.0014
413.24;	2.0112
413.48;	2.0209
413.73;	2.0306
413.97;	2.0403
414.22;	2.0499
414.46;	2.0595
414.70;	2.0690
414.95;	2.0785
415.19;	2.0880
415.43;	2.0974
415.68;	2.1068
415.92;	2.1161
416.16;	2.1254
416.41;	2.1347
416.65;	2.1439
416.89;	2.1530
417.14;	2.1621
417.38;	2.1711
417.63;	2.1801
417.87;	2.1891
418.11;	2.1980
418.36;	2.2068
418.60;	2.2156
418.84;	2.2243
419.09;	2.2329
419.33;	2.2415
419.57;	2.2501
419.82;	2.2586
420.06;	2.2670
420.30;	2.2754
420.55;	2.2837
420.79;	2.2919
421.03;	2.3001
421.28;	2.3082
421.52;	2.3162
421.77;	2.3242
422.01;	2.3321
422.25;	2.3399
422.50;	2.3477
422.74;	2.3554
422.98;	2.3630
423.23;	2.3705
423.47;	2.3780
423.71;	2.3854
423.96;	2.3927
424.20;	2.4000
424.44;	2.4071
424.69;	2.4142
424.93;	2.4212
425.18;	2.4282
425.42;	2.4350
425.66;	2.4418
425.91;	2.4485
426.15;	2.4551
426.39;	2.4616
426.64;	2.4681
426.88;	2.4744
427.12;	2.4807
427.37;	2.4869
427.61;	2.4930
427.85;	2.4990
428.10;	2.5049
428.34;	2.5107
428.59;	2.5165
428.83;	2.5221
429.07;	2.5277
429.32;	2.5332
429.56;	2.5386
429.80;	2.5438
430.05;	2.5490
430.29;	2.5541
430.53;	2.5591
430.78;	2.5640
431.02;	2.5688
431.26;	2.5736
431.51;	2.5782
431.75;	2.5827
432.00;	2.5871
432.24;	2.5914
432.48;	2.5957
432.73;	2.5998
432.97;	2.6038
433.21;	2.6077
433.46;	2.6116
433.70;	2.6153
433.94;	2.6189
434.19;	2.6224
434.43;	2.6258
434.67;	2.6291
434.92;	2.6323
435.16;	2.6354
435.40;	2.6384
435.65;	2.6413
435.89;	2.6441
436.14;	2.6468
436.38;	2.6493
436.62;	2.6518
436.87;	2.6542
437.11;	2.6564
437.35;	2.6586
437.60;	2.6606
437.84;	2.6625
438.08;	2.6644
438.33;	2.6661
438.57;	2.6677
438.81;	2.6692
439.06;	2.6706
439.30;	2.6718
439.55;	2.6730
439.79;	2.6741
440.03;	2.6750
440.28;	2.6759
440.52;	2.6766
440.76;	2.6772
441.01;	2.6777
441.25;	2.6782
441.49;	2.6784
441.74;	2.6786
441.98;	2.6787
442.22;	2.6787
442.47;	2.6785
442.71;	2.6783
442.96;	2.6779
443.20;	2.6774
443.44;	2.6768
443.69;	2.6762
443.93;	2.6754
444.17;	2.6744
444.42;	2.6734
444.66;	2.6723
444.90;	2.6710
445.15;	2.6697
445.39;	2.6682
445.63;	2.6667
445.88;	2.6650
446.12;	2.6632
446.37;	2.6613
446.61;	2.6593
446.85;	2.6572
447.10;	2.6550
447.34;	2.6527
447.58;	2.6503
447.83;	2.6477
448.07;	2.6451
448.31;	2.6423
448.56;	2.6395
448.80;	2.6365
449.04;	2.6335
449.29;	2.6303
449.53;	2.6270
449.77;	2.6237
450.02;	2.6202
450.26;	2.6166
450.51;	2.6129
450.75;	2.6092
450.99;	2.6053
451.24;	2.6013
451.48;	2.5972
451.72;	2.5930
451.97;	2.5888
452.21;	2.5844
452.45;	2.5799
452.70;	2.5753
452.94;	2.5706
453.18;	2.5659
453.43;	2.5610
453.67;	2.5560
453.92;	2.5510
454.16;	2.5458
454.40;	2.5406
454.65;	2.5353
454.89;	2.5298
455.13;	2.5243
455.38;	2.5187
455.62;	2.5130
455.86;	2.5072
456.11;	2.5013
456.35;	2.4954
456.59;	2.4893
456.84;	2.4832
457.08;	2.4769
457.33;	2.4706
457.57;	2.4642
457.81;	2.4577
458.06;	2.4512
458.30;	2.4445
458.54;	2.4378
458.79;	2.4310
459.03;	2.4241
459.27;	2.4171
459.52;	2.4100
459.76;	2.4029
460.00;	2.3957
460.25;	2.3884
460.49;	2.3811
460.73;	2.3737
460.98;	2.3661
461.22;	2.3586
461.47;	2.3509
461.71;	2.3432
461.95;	2.3354
462.20;	2.3276
462.44;	2.3196
462.68;	2.3116
462.93;	2.3036
463.17;	2.2955
463.41;	2.2873
463.66;	2.2790
463.90;	2.2707
464.14;	2.2623
464.39;	2.2539
464.63;	2.2454
464.88;	2.2368
465.12;	2.2282
465.36;	2.2195
465.61;	2.2108
465.85;	2.2020
466.09;	2.1932
466.34;	2.1843
466.58;	2.1753
466.82;	2.1664
467.07;	2.1573
467.31;	2.1482
467.55;	2.1391
467.80;	2.1299
468.04;	2.1206
468.29;	2.1113
468.53;	2.1020
468.77;	2.0926
469.02;	2.0832
469.26;	2.0738
469.50;	2.0643
469.75;	2.0547
469.99;	2.0451
470.23;	2.0355
470.48;	2.0259
470.72;	2.0162
470.96;	2.0065
471.21;	1.9967
471.45;	1.9869
471.70;	1.9771
471.94;	1.9672
472.18;	1.9573
472.43;	1.9474
472.67;	1.9375
472.91;	1.9275
473.16;	1.9175
473.40;	1.9075
473.64;	1.8975
473.89;	1.8874
474.13;	1.8773
474.37;	1.8672
474.62;	1.8570
474.86;	1.8469
475.10;	1.8367
475.35;	1.8265
475.59;	1.8163
475.84;	1.8061
476.08;	1.7959
476.32;	1.7856
476.57;	1.7754
476.81;	1.7651
477.05;	1.7548
477.30;	1.7445
477.54;	1.7342
477.78;	1.7239
478.03;	1.7136
478.27;	1.7032
478.51;	1.6929
478.76;	1.6826
479.00;	1.6722
479.25;	1.6619
479.49;	1.6515
479.73;	1.6412
479.98;	1.6308
480.22;	1.6205
480.46;	1.6101
480.71;	1.5998
480.95;	1.5894
481.19;	1.5791
481.44;	1.5688
481.68;	1.5584
481.92;	1.5481
482.17;	1.5378
482.41;	1.5275
482.66;	1.5172
482.90;	1.5069
483.14;	1.4966
483.39;	1.4864
483.63;	1.4761
483.87;	1.4659
484.12;	1.4556
484.36;	1.4454
484.60;	1.4352
484.85;	1.4251
485.09;	1.4149
485.33;	1.4047
485.58;	1.3946
485.82;	1.3845
486.07;	1.3744
486.31;	1.3643
486.55;	1.3543
486.80;	1.3442
487.04;	1.3342
487.28;	1.3243
487.53;	1.3143
487.77;	1.3044
488.01;	1.2944
488.26;	1.2846
488.50;	1.2747
488.74;	1.2649
488.99;	1.2550
489.23;	1.2453
489.47;	1.2355
489.72;	1.2258
489.96;	1.2161
490.21;	1.2064
490.45;	1.1968
490.69;	1.1872
490.94;	1.1776
491.18;	1.1681
491.42;	1.1586
491.67;	1.1491
491.91;	1.1397
492.15;	1.1303
492.40;	1.1209
492.64;	1.1116
492.88;	1.1023
493.13;	1.0930
493.37;	1.0838
493.62;	1.0746
493.86;	1.0655
494.10;	1.0564
494.35;	1.0473
494.59;	1.0383
494.83;	1.0293
495.08;	1.0204
495.32;	1.0114
495.56;	1.0026
495.81;	0.9937
496.05;	0.9850
496.29;	0.9762
496.54;	0.9675
496.78;	0.9589
497.03;	0.9502
497.27;	0.9417
497.51;	0.9331
497.76;	0.9246
498.00;	0.9162
498.24;	0.9078
498.49;	0.8995
498.73;	0.8912
498.97;	0.8829
499.22;	0.8747
499.46;	0.8665
499.70;	0.8584
499.95;	0.8503
500.19;	0.8423
500.43;	0.8343
500.68;	0.8264
500.92;	0.8185
501.17;	0.8106
501.41;	0.8028
501.65;	0.7951
501.90;	0.7874
502.14;	0.7797
502.38;	0.7721
502.63;	0.7646
502.87;	0.7571
503.11;	0.7496
503.36;	0.7422
503.60;	0.7349
503.84;	0.7276
504.09;	0.7203
504.33;	0.7131
504.58;	0.7059
504.82;	0.6988
505.06;	0.6918
505.31;	0.6848
505.55;	0.6778
505.79;	0.6709
506.04;	0.6640
506.28;	0.6572
506.52;	0.6505
506.77;	0.6438
507.01;	0.6371
507.25;	0.6305
507.50;	0.6239
507.74;	0.6174
507.99;	0.6110
508.23;	0.6046
508.47;	0.5982
508.72;	0.5919
508.96;	0.5857
509.20;	0.5795
509.45;	0.5733
509.69;	0.5672
509.93;	0.5612
510.18;	0.5552
510.42;	0.5492
510.66;	0.5433
510.91;	0.5375
511.15;	0.5316
511.40;	0.5259
511.64;	0.5202
511.88;	0.5145
512.13;	0.5089
512.37;	0.5034
512.61;	0.4979
512.86;	0.4924
513.10;	0.4870
513.34;	0.4817
513.59;	0.4764
513.83;	0.4711
514.07;	0.4659
514.32;	0.4608
514.56;	0.4556
514.80;	0.4506
515.05;	0.4456
515.29;	0.4406
515.54;	0.4357
515.78;	0.4308
516.02;	0.4260
516.27;	0.4212
516.51;	0.4165
516.75;	0.4118
517.00;	0.4072
517.24;	0.4026
517.48;	0.3981
517.73;	0.3936
517.97;	0.3892
518.21;	0.3848
518.46;	0.3804
518.70;	0.3761
518.95;	0.3718
519.19;	0.3676
519.43;	0.3635
519.68;	0.3593
519.92;	0.3553
520.16;	0.3512
520.41;	0.3472
520.65;	0.3433
520.89;	0.3394
521.14;	0.3356
521.38;	0.3317
521.62;	0.3280
521.87;	0.3242
522.11;	0.3206
522.36;	0.3169
522.60;	0.3133
522.84;	0.3098
523.09;	0.3063
523.33;	0.3028
523.57;	0.2994
523.82;	0.2960
524.06;	0.2927
524.30;	0.2893
524.55;	0.2861
524.79;	0.2829
525.03;	0.2797
525.28;	0.2765
525.52;	0.2734
525.77;	0.2704
526.01;	0.2674
526.25;	0.2644
526.50;	0.2614
526.74;	0.2585
526.98;	0.2557
527.23;	0.2528
527.47;	0.2500
527.71;	0.2473
527.96;	0.2446
528.20;	0.2419
528.44;	0.2393
528.69;	0.2366
528.93;	0.2341
529.17;	0.2315
529.42;	0.2291
529.66;	0.2266
529.91;	0.2242
530.15;	0.2218
530.39;	0.2194
530.64;	0.2171
530.88;	0.2148
531.12;	0.2126
531.37;	0.2103
531.61;	0.2082
531.85;	0.2060
532.10;	0.2039
532.34;	0.2018
532.58;	0.1997
532.83;	0.1977
533.07;	0.1957
533.32;	0.1938
533.56;	0.1919
533.80;	0.1900
534.05;	0.1881
534.29;	0.1863
534.53;	0.1845
534.78;	0.1827
535.02;	0.1809
535.26;	0.1792
535.51;	0.1776
535.75;	0.1759
535.99;	0.1743
536.24;	0.1727
536.48;	0.1711
536.73;	0.1696
536.97;	0.1681
537.21;	0.1666
537.46;	0.1651
537.70;	0.1637
537.94;	0.1623
538.19;	0.1609
538.43;	0.1596
538.67;	0.1583
538.92;	0.1570
539.16;	0.1557
539.40;	0.1544
539.65;	0.1532
539.89;	0.1520
540.13;	0.1509
540.38;	0.1497
540.62;	0.1486
540.87;	0.1475
541.11;	0.1464
541.35;	0.1454
541.60;	0.1444
541.84;	0.1434
542.08;	0.1424
542.33;	0.1414
542.57;	0.1405
542.81;	0.1396
543.06;	0.1387
543.30;	0.1379
543.54;	0.1370
543.79;	0.1362
544.03;	0.1354
544.28;	0.1346
544.52;	0.1339
544.76;	0.1331
545.01;	0.1324
545.25;	0.1317
545.49;	0.1310
545.74;	0.1304
545.98;	0.1298
546.22;	0.1291
546.47;	0.1285
546.71;	0.1280
546.95;	0.1274
547.20;	0.1269
547.44;	0.1263
547.69;	0.1258
547.93;	0.1254
548.17;	0.1249
548.42;	0.1244
548.66;	0.1240
548.90;	0.1236
549.15;	0.1232
549.39;	0.1228
549.63;	0.1225
549.88;	0.1221
550.12;	0.1218
550.36;	0.1215
550.61;	0.1212
550.85;	0.1209
551.10;	0.1206
551.34;	0.1204
551.58;	0.1202
551.83;	0.1200
552.07;	0.1197
552.31;	0.1196
552.56;	0.1194
552.80;	0.1192
553.04;	0.1191
553.29;	0.1190
553.53;	0.1189
553.77;	0.1188
554.02;	0.1187
554.26;	0.1186
554.50;	0.1185
554.75;	0.1185
554.99;	0.1185
555.24;	0.1184
555.48;	0.1184
555.72;	0.1185
555.97;	0.1185
556.21;	0.1185
556.45;	0.1186
556.70;	0.1186
556.94;	0.1187
557.18;	0.1188
557.43;	0.1189
557.67;	0.1190
557.91;	0.1191
558.16;	0.1192
558.40;	0.1194
558.65;	0.1195
558.89;	0.1197
559.13;	0.1199
559.38;	0.1201
559.62;	0.1202
559.86;	0.1205
560.11;	0.1207
560.35;	0.1209
560.59;	0.1212
560.84;	0.1214
561.08;	0.1217
561.32;	0.1219
561.57;	0.1222
561.81;	0.1225
562.06;	0.1228
562.30;	0.1231
562.54;	0.1234
562.79;	0.1238
563.03;	0.1241
563.27;	0.1245
563.52;	0.1248
563.76;	0.1252
564.00;	0.1256
564.25;	0.1259
564.49;	0.1263
564.73;	0.1267
564.98;	0.1272
565.22;	0.1276
565.47;	0.1280
565.71;	0.1284
565.95;	0.1289
566.20;	0.1293
566.44;	0.1298
566.68;	0.1303
566.93;	0.1307
567.17;	0.1312
567.41;	0.1317
567.66;	0.1322
567.90;	0.1327
568.14;	0.1332
568.39;	0.1338
568.63;	0.1343
568.87;	0.1348
569.12;	0.1354
569.36;	0.1359
569.61;	0.1365
569.85;	0.1371
570.09;	0.1376
570.34;	0.1382
570.58;	0.1388
570.82;	0.1394
571.07;	0.1400
571.31;	0.1406
571.55;	0.1412
571.80;	0.1418
572.04;	0.1424
572.28;	0.1431
572.53;	0.1437
572.77;	0.1444
573.02;	0.1450
573.26;	0.1457
573.50;	0.1463
573.75;	0.1470
573.99;	0.1477
574.23;	0.1484
574.48;	0.1490
574.72;	0.1497
574.96;	0.1504
575.21;	0.1511
575.45;	0.1518
575.69;	0.1525
575.94;	0.1533
576.18;	0.1540
576.43;	0.1547
576.67;	0.1555
576.91;	0.1562
577.16;	0.1569
577.40;	0.1577
577.64;	0.1584
577.89;	0.1592
578.13;	0.1600
578.37;	0.1607
578.62;	0.1615
578.86;	0.1623
579.10;	0.1631
579.35;	0.1639
579.59;	0.1647
579.83;	0.1655
580.08;	0.1663
580.32;	0.1671
580.57;	0.1679
580.81;	0.1687
581.05;	0.1695
581.30;	0.1704
581.54;	0.1712
581.78;	0.1720
582.03;	0.1729
582.27;	0.1737
582.51;	0.1746
582.76;	0.1754
583.00;	0.1763
583.24;	0.1771
583.49;	0.1780
583.73;	0.1788
583.98;	0.1797
584.22;	0.1806
584.46;	0.1815
584.71;	0.1824
584.95;	0.1832
585.19;	0.1841
585.44;	0.1850
585.68;	0.1859
585.92;	0.1868
586.17;	0.1877
586.41;	0.1886
586.65;	0.1896
586.90;	0.1905
587.14;	0.1914
587.39;	0.1923
587.63;	0.1932
587.87;	0.1942
588.12;	0.1951
588.36;	0.1960
588.60;	0.1970
588.85;	0.1979
589.09;	0.1989
589.33;	0.1998
589.58;	0.2008
589.82;	0.2017
590.06;	0.2027
590.31;	0.2036
590.55;	0.2046
590.80;	0.2056
591.04;	0.2065
591.28;	0.2075
591.53;	0.2085
591.77;	0.2095
592.01;	0.2104
592.26;	0.2114
592.50;	0.2124
592.74;	0.2134
592.99;	0.2144
593.23;	0.2154
593.47;	0.2164
593.72;	0.2174
593.96;	0.2184
594.20;	0.2194
594.45;	0.2204
594.69;	0.2214
594.94;	0.2224
595.18;	0.2234
595.42;	0.2245
595.67;	0.2255
595.91;	0.2265
596.15;	0.2275
596.40;	0.2286
596.64;	0.2296
596.88;	0.2306
597.13;	0.2316
597.37;	0.2327
597.61;	0.2337
597.86;	0.2348
598.10;	0.2358
598.35;	0.2368
598.59;	0.2379
598.83;	0.2389
599.08;	0.2400
599.32;	0.2410
599.56;	0.2421
599.81;	0.2431
600.05;	0.2442
600.29;	0.2453
600.54;	0.2463
600.78;	0.2474
601.02;	0.2485
601.27;	0.2495
601.51;	0.2506
601.76;	0.2517
602.00;	0.2527
602.24;	0.2538
602.49;	0.2549
602.73;	0.2559
602.97;	0.2570
603.22;	0.2581
603.46;	0.2592
603.70;	0.2603
603.95;	0.2613
604.19;	0.2624
604.43;	0.2635
604.68;	0.2646
604.92;	0.2657
605.17;	0.2668
605.41;	0.2679
605.65;	0.2690
605.90;	0.2700
606.14;	0.2711
606.38;	0.2722
606.63;	0.2733
606.87;	0.2744
607.11;	0.2755
607.36;	0.2766
607.60;	0.2777
607.84;	0.2788
608.09;	0.2799
608.33;	0.2810
608.57;	0.2821
608.82;	0.2832
609.06;	0.2843
609.31;	0.2854
609.55;	0.2865
609.79;	0.2876
610.04;	0.2888
610.28;	0.2899
610.52;	0.2910
610.77;	0.2921
611.01;	0.2932
611.25;	0.2943
611.50;	0.2954
611.74;	0.2965
611.98;	0.2976
612.23;	0.2987
612.47;	0.2998
612.72;	0.3010
612.96;	0.3021
613.20;	0.3032
613.45;	0.3043
613.69;	0.3054
613.93;	0.3065
614.18;	0.3076
614.42;	0.3087
614.66;	0.3099
614.91;	0.3110
615.15;	0.3121
615.39;	0.3132
615.64;	0.3143
615.88;	0.3154
616.13;	0.3165
616.37;	0.3176
616.61;	0.3188
616.86;	0.3199
617.10;	0.3210
617.34;	0.3221
617.59;	0.3232
617.83;	0.3243
618.07;	0.3254
618.32;	0.3265
618.56;	0.3276
618.80;	0.3287
619.05;	0.3298
619.29;	0.3310
619.53;	0.3321
619.78;	0.3332
620.02;	0.3343
620.27;	0.3354
620.51;	0.3365
620.75;	0.3376
621.00;	0.3387
621.24;	0.3398
621.48;	0.3409
621.73;	0.3420
621.97;	0.3431
622.21;	0.3442
622.46;	0.3453
622.70;	0.3464
622.94;	0.3475
623.19;	0.3486
623.43;	0.3496
623.68;	0.3507
623.92;	0.3518
624.16;	0.3529
624.41;	0.3540
624.65;	0.3551
624.89;	0.3562
625.14;	0.3573
625.38;	0.3583
625.62;	0.3594
625.87;	0.3605
626.11;	0.3616
626.35;	0.3626
626.60;	0.3637
626.84;	0.3648
627.09;	0.3659
627.33;	0.3669
627.57;	0.3680
627.82;	0.3691
628.06;	0.3701
628.30;	0.3712
628.55;	0.3722
628.79;	0.3733
629.03;	0.3744
629.28;	0.3754
629.52;	0.3765
629.76;	0.3775
630.01;	0.3786
630.25;	0.3796
630.50;	0.3807
630.74;	0.3817
630.98;	0.3827
631.23;	0.3838
631.47;	0.3848
631.71;	0.3858
631.96;	0.3869
632.20;	0.3879
632.44;	0.3889
632.69;	0.3899
632.93;	0.3910
633.17;	0.3920
633.42;	0.3930
633.66;	0.3940
633.90;	0.3950
634.15;	0.3960
634.39;	0.3970
634.64;	0.3980
634.88;	0.3990
635.12;	0.4000
635.37;	0.4010
635.61;	0.4020
635.85;	0.4030
636.10;	0.4040
636.34;	0.4050
636.58;	0.4060
636.83;	0.4069
637.07;	0.4079
637.31;	0.4089
637.56;	0.4098
637.80;	0.4108
638.05;	0.4118
638.29;	0.4127
638.53;	0.4137
638.78;	0.4146
639.02;	0.4156
639.26;	0.4165
639.51;	0.4175
639.75;	0.4184
639.99;	0.4193
640.24;	0.4203
640.48;	0.4212
640.72;	0.4221
640.97;	0.4230
641.21;	0.4240
641.46;	0.4249
641.70;	0.4258
641.94;	0.4267
642.19;	0.4276
642.43;	0.4285
642.67;	0.4294
642.92;	0.4303
643.16;	0.4312
643.40;	0.4320
643.65;	0.4329
643.89;	0.4338
644.13;	0.4347
644.38;	0.4355
644.62;	0.4364
644.87;	0.4373
645.11;	0.4381
645.35;	0.4390
645.60;	0.4398
645.84;	0.4407
646.08;	0.4415
646.33;	0.4423
646.57;	0.4432
646.81;	0.4440
647.06;	0.4448
647.30;	0.4456
647.54;	0.4464
647.79;	0.4472
648.03;	0.4480
648.27;	0.4488
648.52;	0.4496
648.76;	0.4504
649.01;	0.4512
649.25;	0.4520
649.49;	0.4528
649.74;	0.4535
649.98;	0.4543
650.22;	0.4551
650.47;	0.4558
650.71;	0.4566
650.95;	0.4573
651.20;	0.4581
651.44;	0.4588
651.68;	0.4595
651.93;	0.4603
652.17;	0.4610
652.42;	0.4617
652.66;	0.4624
652.90;	0.4631
653.15;	0.4638
653.39;	0.4645
653.63;	0.4652
653.88;	0.4659
654.12;	0.4666
654.36;	0.4673
654.61;	0.4680
654.85;	0.4686
655.09;	0.4693
655.34;	0.4699
655.58;	0.4706
655.83;	0.4712
656.07;	0.4719
656.31;	0.4725
656.56;	0.4732
656.80;	0.4738
657.04;	0.4744
657.29;	0.4750
657.53;	0.4756
657.77;	0.4762
658.02;	0.4768
658.26;	0.4774
658.50;	0.4780
658.75;	0.4786
658.99;	0.4792
659.23;	0.4797
659.48;	0.4803
659.72;	0.4808
659.97;	0.4814
660.21;	0.4819
660.45;	0.4825
660.70;	0.4830
660.94;	0.4835
661.18;	0.4841
661.43;	0.4846
661.67;	0.4851
661.91;	0.4856
662.16;	0.4861
662.40;	0.4866
662.64;	0.4871
662.89;	0.4876
663.13;	0.4880
663.38;	0.4885
663.62;	0.4890
663.86;	0.4894
664.11;	0.4899
664.35;	0.4903
664.59;	0.4908
664.84;	0.4912
665.08;	0.4916
665.32;	0.4921
665.57;	0.4925
665.81;	0.4929
666.05;	0.4933
666.30;	0.4937
666.54;	0.4941
666.79;	0.4945
667.03;	0.4948
667.27;	0.4952
667.52;	0.4956
667.76;	0.4959
668.00;	0.4963
668.25;	0.4966
668.49;	0.4970
668.73;	0.4973
668.98;	0.4976
669.22;	0.4980
669.46;	0.4983
669.71;	0.4986
669.95;	0.4989
670.20;	0.4992
670.44;	0.4995
670.68;	0.4998
670.93;	0.5000
671.17;	0.5003
671.41;	0.5006
671.66;	0.5008
671.90;	0.5011
672.14;	0.5013
672.39;	0.5016
672.63;	0.5018
672.87;	0.5020
673.12;	0.5022
673.36;	0.5024
673.60;	0.5026
673.85;	0.5028
674.09;	0.5030
674.34;	0.5032
674.58;	0.5034
674.82;	0.5036
675.07;	0.5037
675.31;	0.5039
675.55;	0.5040
675.80;	0.5042
676.04;	0.5043
676.28;	0.5045
676.53;	0.5046
676.77;	0.5047
677.01;	0.5048
677.26;	0.5049
677.50;	0.5050
677.75;	0.5051
677.99;	0.5052
678.23;	0.5053
678.48;	0.5054
678.72;	0.5054
678.96;	0.5055
679.21;	0.5055
679.45;	0.5056
679.69;	0.5056
679.94;	0.5056
680.18;	0.5057
680.42;	0.5057
680.67;	0.5057
680.91;	0.5057
681.16;	0.5057
681.40;	0.5057
681.64;	0.5057
681.89;	0.5057
682.13;	0.5056
682.37;	0.5056
682.62;	0.5056
682.86;	0.5055
683.10;	0.5055
683.35;	0.5054
683.59;	0.5053
683.83;	0.5053
684.08;	0.5052
684.32;	0.5051
684.57;	0.5050
684.81;	0.5049
685.05;	0.5048
685.30;	0.5047
685.54;	0.5046
685.78;	0.5044
686.03;	0.5043
686.27;	0.5041
686.51;	0.5040
686.76;	0.5038
687.00;	0.5037
687.24;	0.5035
687.49;	0.5033
687.73;	0.5032
687.97;	0.5030
688.22;	0.5028
688.46;	0.5026
688.71;	0.5024
688.95;	0.5022
689.19;	0.5019
689.44;	0.5017
689.68;	0.5015
689.92;	0.5012
690.17;	0.5010
690.41;	0.5007
690.65;	0.5005
690.90;	0.5002
691.14;	0.5000
691.38;	0.4997
691.63;	0.4994
691.87;	0.4991
692.12;	0.4988
692.36;	0.4985
692.60;	0.4982
692.85;	0.4979
693.09;	0.4975
693.33;	0.4972
693.58;	0.4969
693.82;	0.4965
694.06;	0.4962
694.31;	0.4958
694.55;	0.4955
694.79;	0.4951
695.04;	0.4947
695.28;	0.4944
695.53;	0.4940
695.77;	0.4936
696.01;	0.4932
696.26;	0.4928
696.50;	0.4924
696.74;	0.4919
696.99;	0.4915
697.23;	0.4911
697.47;	0.4907
697.72;	0.4902
697.96;	0.4898
698.20;	0.4893
698.45;	0.4889
698.69;	0.4884
698.93;	0.4879
699.18;	0.4874
699.42;	0.4870
699.67;	0.4865
699.91;	0.4860
700.15;	0.4855
700.40;	0.4850
700.64;	0.4844
700.88;	0.4839
701.13;	0.4834
701.37;	0.4829
701.61;	0.4823
701.86;	0.4818
702.10;	0.4812
702.34;	0.4807
702.59;	0.4801
702.83;	0.4796
703.08;	0.4790
703.32;	0.4784
703.56;	0.4778
703.81;	0.4772
704.05;	0.4767
704.29;	0.4761
704.54;	0.4755
704.78;	0.4748
705.02;	0.4742
705.27;	0.4736
705.51;	0.4730
705.75;	0.4723
706.00;	0.4717
706.24;	0.4711
706.49;	0.4704
706.73;	0.4698
706.97;	0.4691
707.22;	0.4684
707.46;	0.4678
707.70;	0.4671
707.95;	0.4664
708.19;	0.4657
708.43;	0.4650
708.68;	0.4644
708.92;	0.4637
709.16;	0.4629
709.41;	0.4622
709.65;	0.4615
709.90;	0.4608
710.14;	0.4601
710.38;	0.4593
710.63;	0.4586
710.87;	0.4579
711.11;	0.4571
711.36;	0.4564
711.60;	0.4556
711.84;	0.4549
712.09;	0.4541
712.33;	0.4533
712.57;	0.4526
712.82;	0.4518
713.06;	0.4510
713.30;	0.4502
713.55;	0.4494
713.79;	0.4486
714.04;	0.4478
714.28;	0.4470
714.52;	0.4462
714.77;	0.4454
715.01;	0.4446
715.25;	0.4438
715.50;	0.4429
715.74;	0.4421
715.98;	0.4413
716.23;	0.4404
716.47;	0.4396
716.71;	0.4387
716.96;	0.4379
717.20;	0.4370
717.45;	0.4362
717.69;	0.4353
717.93;	0.4344
718.18;	0.4336
718.42;	0.4327
718.66;	0.4318
718.91;	0.4309
719.15;	0.4300
719.39;	0.4291
719.64;	0.4282
719.88;	0.4273
720.12;	0.4264
720.37;	0.4255
720.61;	0.4246
720.86;	0.4237
721.10;	0.4228
721.34;	0.4219
721.59;	0.4209
721.83;	0.4200
722.07;	0.4191
722.32;	0.4181
722.56;	0.4172
722.80;	0.4163
723.05;	0.4153
723.29;	0.4144
723.53;	0.4134
723.78;	0.4125
724.02;	0.4115
724.27;	0.4105
724.51;	0.4096
724.75;	0.4086
725.00;	0.4076
725.24;	0.4067
725.48;	0.4057
725.73;	0.4047
725.97;	0.4037
726.21;	0.4027
726.46;	0.4017
726.70;	0.4007
726.94;	0.3998
727.19;	0.3988
727.43;	0.3978
727.67;	0.3968
727.92;	0.3957
728.16;	0.3947
728.41;	0.3937
728.65;	0.3927
728.89;	0.3917
729.14;	0.3907
729.38;	0.3897
729.62;	0.3886
729.87;	0.3876
730.11;	0.3866
730.35;	0.3855
730.60;	0.3845
730.84;	0.3835
731.08;	0.3824
731.33;	0.3814
731.57;	0.3804
731.82;	0.3793
732.06;	0.3783
732.30;	0.3772
732.55;	0.3762
732.79;	0.3751
733.03;	0.3741
733.28;	0.3730
733.52;	0.3719
733.76;	0.3709
734.01;	0.3698
734.25;	0.3688
734.49;	0.3677
734.74;	0.3666
734.98;	0.3655
735.23;	0.3645
735.47;	0.3634
735.71;	0.3623
735.96;	0.3613
736.20;	0.3602
736.44;	0.3591
736.69;	0.3580
736.93;	0.3569
737.17;	0.3558
737.42;	0.3548
737.66;	0.3537
737.90;	0.3526
738.15;	0.3515
738.39;	0.3504
738.63;	0.3493
738.88;	0.3482
739.12;	0.3471
739.37;	0.3460
739.61;	0.3449
739.85;	0.3438
740.10;	0.3427
740.34;	0.3416
740.58;	0.3405
740.83;	0.3394
741.07;	0.3383
741.31;	0.3372
741.56;	0.3361
741.80;	0.3350
742.04;	0.3339
742.29;	0.3328
742.53;	0.3317
742.78;	0.3306
743.02;	0.3295
743.26;	0.3284
743.51;	0.3273
743.75;	0.3262
743.99;	0.3251
744.24;	0.3239
744.48;	0.3228
744.72;	0.3217
744.97;	0.3206
745.21;	0.3195
745.45;	0.3184
745.70;	0.3173
745.94;	0.3161
746.19;	0.3150
746.43;	0.3139
746.67;	0.3128
746.92;	0.3117
747.16;	0.3106
747.40;	0.3095
747.65;	0.3083
747.89;	0.3072
748.13;	0.3061
748.38;	0.3050
748.62;	0.3039
748.86;	0.3028
749.11;	0.3017
749.35;	0.3005
749.60;	0.2994
749.84;	0.2983
750.08;	0.2972
750.33;	0.2961
750.57;	0.2950
750.81;	0.2939
751.06;	0.2927
751.30;	0.2916
751.54;	0.2905
751.79;	0.2894
752.03;	0.2883
752.27;	0.2872
752.52;	0.2861
752.76;	0.2850
753.00;	0.2839
753.25;	0.2828
753.49;	0.2816
753.74;	0.2805
753.98;	0.2794
754.22;	0.2783
754.47;	0.2772
754.71;	0.2761
754.95;	0.2750
755.20;	0.2739
755.44;	0.2728
755.68;	0.2717
755.93;	0.2706
756.17;	0.2695
756.41;	0.2684
756.66;	0.2673
756.90;	0.2662
757.15;	0.2651
757.39;	0.2640
757.63;	0.2629
757.88;	0.2618
758.12;	0.2607
758.36;	0.2596
758.61;	0.2586
758.85;	0.2575
759.09;	0.2564
759.34;	0.2553
759.58;	0.2542
759.82;	0.2531
760.07;	0.2520
760.31;	0.2510
760.56;	0.2499
760.80;	0.2488
761.04;	0.2477
761.29;	0.2467
761.53;	0.2456
761.77;	0.2445
762.02;	0.2434
762.26;	0.2424
762.50;	0.2413
762.75;	0.2402
762.99;	0.2392
763.23;	0.2381
763.48;	0.2370
763.72;	0.2360
763.97;	0.2349
764.21;	0.2339
764.45;	0.2328
764.70;	0.2318
764.94;	0.2307
765.18;	0.2297
765.43;	0.2286
765.67;	0.2276
765.91;	0.2265
766.16;	0.2255
766.40;	0.2244
766.64;	0.2234
766.89;	0.2224
767.13;	0.2213
767.37;	0.2203
767.62;	0.2193
767.86;	0.2182
768.11;	0.2172
768.35;	0.2162
768.59;	0.2152
768.84;	0.2141
769.08;	0.2131
769.32;	0.2121
769.57;	0.2111
769.81;	0.2101
770.05;	0.2091
770.30;	0.2081
770.54;	0.2070
770.78;	0.2060
771.03;	0.2050
771.27;	0.2040
771.52;	0.2030
771.76;	0.2020
772.00;	0.2010
772.25;	0.2001
772.49;	0.1991
772.73;	0.1981
772.98;	0.1971
773.22;	0.1961
773.46;	0.1951
773.71;	0.1942
773.95;	0.1932
774.19;	0.1922
774.44;	0.1912
774.68;	0.1903
774.93;	0.1893
775.17;	0.1883
775.41;	0.1874
775.66;	0.1864
775.90;	0.1855
776.14;	0.1845
776.39;	0.1836
776.63;	0.1826
776.87;	0.1817
777.12;	0.1807
777.36;	0.1798
777.60;	0.1788
777.85;	0.1779
778.09;	0.1770
778.33;	0.1760
778.58;	0.1751
778.82;	0.1742
779.07;	0.1733
779.31;	0.1723
779.55;	0.1714
779.80;	0.1705
780.04;	0.1696
780.28;	0.1687
780.53;	0.1678
780.77;	0.1669
781.01;	0.1660
781.26;	0.1651
781.50;	0.1642
781.74;	0.1633
781.99;	0.1624
782.23;	0.1615
782.48;	0.1606
782.72;	0.1597
782.96;	0.1589
783.21;	0.1580
783.45;	0.1571
783.69;	0.1562
783.94;	0.1554
784.18;	0.1545
784.42;	0.1536
784.67;	0.1528
784.91;	0.1519
785.15;	0.1511
785.40;	0.1502
785.64;	0.1494
785.89;	0.1485
786.13;	0.1477
786.37;	0.1468
786.62;	0.1460
786.86;	0.1452
787.10;	0.1443
787.35;	0.1435
787.59;	0.1427
787.83;	0.1418
788.08;	0.1410
788.32;	0.1402
788.56;	0.1394
788.81;	0.1386
789.05;	0.1378
789.30;	0.1370
789.54;	0.1362
789.78;	0.1354
790.03;	0.1346
790.27;	0.1338
790.51;	0.1330
790.76;	0.1322
791.00;	0.1314
