wavelength, nm;	absorption
367.00;	0.4958
367.26;	0.5026
367.53;	0.5095
367.79;	0.5165
368.06;	0.5235
368.32;	0.5307
368.59;	0.5379
368.85;	0.5451
369.12;	0.5525
369.38;	0.5599
369.64;	0.5674
369.91;	0.5749
370.17;	0.5825
370.44;	0.5902
370.70;	0.5980
370.97;	0.6059
371.23;	0.6138
371.49;	0.6218
371.76;	0.6298
372.02;	0.6380
372.29;	0.6462
372.55;	0.6545
372.82;	0.6628
373.08;	0.6712
373.35;	0.6798
373.61;	0.6883
373.87;	0.6970
374.14;	0.7057
374.40;	0.7145
374.67;	0.7234
374.93;	0.7324
375.20;	0.7414
375.46;	0.7505
375.73;	0.7597
375.99;	0.7689
376.25;	0.7783
376.52;	0.7877
376.78;	0.7972
377.05;	0.8067
377.31;	0.8164
377.58;	0.8261
377.84;	0.8358
378.10;	0.8457
378.37;	0.8556
378.63;	0.8656
378.90;	0.8757
379.16;	0.8859
379.43;	0.8961
379.69;	0.9064
379.96;	0.9168
380.22;	0.9272
380.48;	0.9378
380.75;	0.9484
381.01;	0.9590
381.28;	0.9698
381.54;	0.9806
381.81;	0.9915
382.07;	1.0025
382.34;	1.0135
382.60;	1.0246
382.86;	1.0358
383.13;	1.0470
383.39;	1.0584
383.66;	1.0698
383.92;	1.0812
384.19;	1.0927
384.45;	1.1044
384.72;	1.1160
384.98;	1.1278
385.24;	1.1396
385.51;	1.1515
385.77;	1.1634
386.04;	1.1754
386.30;	1.1875
386.57;	1.1996
386.83;	1.2118
387.09;	1.2241
387.36;	1.2364
387.62;	1.2489
387.89;	1.2613
388.15;	1.2738
388.42;	1.2864
388.68;	1.2991
388.95;	1.3118
389.21;	1.3246
389.47;	1.3374
389.74;	1.3503
390.00;	1.3633
390.27;	1.3763
390.53;	1.3893
390.80;	1.4024
391.06;	1.4156
391.33;	1.4289
391.59;	1.4421
391.85;	1.4555
392.12;	1.4689
392.38;	1.4823
392.65;	1.4958
392.91;	1.5093
393.18;	1.5229
393.44;	1.5366
393.70;	1.5503
393.97;	1.5640
394.23;	1.5778
394.50;	1.5916
394.76;	1.6055
395.03;	1.6194
395.29;	1.6333
395.56;	1.6473
395.82;	1.6613
396.08;	1.6754
396.35;	1.6895
396.61;	1.7036
396.88;	1.7178
397.14;	1.7320
397.41;	1.7463
397.67;	1.7605
397.94;	1.7749
398.20;	1.7892
398.46;	1.8035
398.73;	1.8179
398.99;	1.8324
399.26;	1.8468
399.52;	1.8613
399.79;	1.8758
400.05;	1.8903
400.31;	1.9048
400.58;	1.9193
400.84;	1.9339
401.11;	1.9485
401.37;	1.9631
401.64;	1.9777
401.90;	1.9923
402.17;	2.0069
402.43;	2.0216
402.69;	2.0362
402.96;	2.0509
403.22;	2.0656
403.49;	2.0802
403.75;	2.0949
404.02;	2.1096
404.28;	2.1242
404.55;	2.1389
404.81;	2.1536
405.07;	2.1682
405.34;	2.1829
405.60;	2.1976
405.87;	2.2122
406.13;	2.2268
406.40;	2.2414
406.66;	2.2561
406.93;	2.2706
407.19;	2.2852
407.45;	2.2998
407.72;	2.3143
407.98;	2.3288
408.25;	2.3433
408.51;	2.3578
408.78;	2.3722
409.04;	2.3867
409.30;	2.4010
409.57;	2.4154
409.83;	2.4297
410.10;	2.4440
410.36;	2.4583
410.63;	2.4725
410.89;	2.4867
411.16;	2.5008
411.42;	2.5149
411.68;	2.5290
411.95;	2.5430
412.21;	2.5570
412.48;	2.5709
412.74;	2.5848
413.01;	2.5986
413.27;	2.6124
413.54;	2.6261
413.80;	2.6397
414.06;	2.6533
414.33;	2.6669
414.59;	2.6804
414.86;	2.6938
415.12;	2.7072
415.39;	2.7204
415.65;	2.7337
415.91;	2.7468
416.18;	2.7599
416.44;	2.7729
416.71;	2.7859
416.97;	2.7987
417.24;	2.8115
417.50;	2.8242
417.77;	2.8368
418.03;	2.8494
418.29;	2.8619
418.56;	2.8742
418.82;	2.8865
419.09;	2.8987
419.35;	2.9109
419.62;	2.9229
419.88;	2.9348
420.15;	2.9467
420.41;	2.9584
420.67;	2.9700
420.94;	2.9816
421.20;	2.9930
421.47;	3.0044
421.73;	3.0156
422.00;	3.0268
422.26;	3.0378
422.52;	3.0487
422.79;	3.0595
423.05;	3.0703
423.32;	3.0809
423.58;	3.0913
423.85;	3.1017
424.11;	3.1120
424.38;	3.1221
424.64;	3.1321
424.90;	3.1420
425.17;	3.1518
425.43;	3.1614
425.70;	3.1710
425.96;	3.1804
426.23;	3.1896
426.49;	3.1988
426.76;	3.2078
427.02;	3.2167
427.28;	3.2255
427.55;	3.2341
427.81;	3.2426
428.08;	3.2509
428.34;	3.2591
428.61;	3.2672
428.87;	3.2752
429.14;	3.2830
429.40;	3.2906
429.66;	3.2982
429.93;	3.3055
430.19;	3.3128
430.46;	3.3199
430.72;	3.3268
430.99;	3.3336
431.25;	3.3403
431.51;	3.3468
431.78;	3.3531
432.04;	3.3593
432.31;	3.3654
432.57;	3.3713
432.84;	3.3770
433.10;	3.3826
433.37;	3.3880
433.63;	3.3933
433.89;	3.3984
434.16;	3.4034
434.42;	3.4082
434.69;	3.4128
434.95;	3.4173
435.22;	3.4217
435.48;	3.4258
435.75;	3.4298
436.01;	3.4337
436.27;	3.4374
436.54;	3.4409
436.80;	3.4443
437.07;	3.4475
437.33;	3.4505
437.60;	3.4534
437.86;	3.4561
438.12;	3.4586
438.39;	3.4610
438.65;	3.4632
438.92;	3.4652
439.18;	3.4671
439.45;	3.4688
439.71;	3.4703
439.98;	3.4717
440.24;	3.4729
440.50;	3.4740
440.77;	3.4748
441.03;	3.4755
441.30;	3.4761
441.56;	3.4764
441.83;	3.4766
442.09;	3.4766
442.36;	3.4765
442.62;	3.4762
442.88;	3.4757
443.15;	3.4751
443.41;	3.4743
443.68;	3.4733
443.94;	3.4721
444.21;	3.4708
444.47;	3.4693
444.73;	3.4677
445.00;	3.4659
445.26;	3.4639
445.53;	3.4617
445.79;	3.4594
446.06;	3.4569
446.32;	3.4543
446.59;	3.4515
446.85;	3.4485
447.11;	3.4453
447.38;	3.4420
447.64;	3.4386
447.91;	3.4349
448.17;	3.4311
448.44;	3.4272
448.70;	3.4231
448.97;	3.4188
449.23;	3.4143
449.49;	3.4097
449.76;	3.4050
450.02;	3.4001
450.29;	3.3950
450.55;	3.3898
450.82;	3.3844
451.08;	3.3788
451.35;	3.3732
451.61;	3.3673
451.87;	3.3613
452.14;	3.3552
452.40;	3.3489
452.67;	3.3424
452.93;	3.3358
453.20;	3.3291
453.46;	3.3222
453.72;	3.3151
453.99;	3.3079
454.25;	3.3006
454.52;	3.2931
454.78;	3.2855
455.05;	3.2778
455.31;	3.2699
455.58;	3.2618
455.84;	3.2536
456.10;	3.2453
456.37;	3.2369
456.63;	3.2283
456.90;	3.2196
457.16;	3.2108
457.43;	3.2018
457.69;	3.1927
457.96;	3.1834
458.22;	3.1741
458.48;	3.1646
458.75;	3.1550
459.01;	3.1452
459.28;	3.1354
459.54;	3.1254
459.81;	3.1153
460.07;	3.1051
460.33;	3.0948
460.60;	3.0843
460.86;	3.0738
461.13;	3.0631
461.39;	3.0523
461.66;	3.0414
461.92;	3.0304
462.19;	3.0193
462.45;	3.0081
462.71;	2.9968
462.98;	2.9854
463.24;	2.9739
463.51;	2.9623
463.77;	2.9506
464.04;	2.9388
464.30;	2.9269
464.57;	2.9149
464.83;	2.9028
465.09;	2.8906
465.36;	2.8784
465.62;	2.8660
465.89;	2.8536
466.15;	2.8411
466.42;	2.8285
466.68;	2.8158
466.94;	2.8030
467.21;	2.7902
467.47;	2.7773
467.74;	2.7643
468.00;	2.7512
468.27;	2.7381
468.53;	2.7249
468.80;	2.7116
469.06;	2.6983
469.32;	2.6849
469.59;	2.6715
469.85;	2.6579
470.12;	2.6444
470.38;	2.6307
470.65;	2.6170
470.91;	2.6033
471.18;	2.5895
471.44;	2.5756
471.70;	2.5617
471.97;	2.5478
472.23;	2.5338
472.50;	2.5197
472.76;	2.5057
473.03;	2.4915
473.29;	2.4774
473.56;	2.4632
473.82;	2.4489
474.08;	2.4346
474.35;	2.4203
474.61;	2.4060
474.88;	2.3916
475.14;	2.3772
475.41;	2.3628
475.67;	2.3483
475.93;	2.3338
476.20;	2.3193
476.46;	2.3048
476.73;	2.2903
476.99;	2.2757
477.26;	2.2611
477.52;	2.2465
477.79;	2.2319
478.05;	2.2173
478.31;	2.2027
478.58;	2.1880
478.84;	2.1734
479.11;	2.1587
479.37;	2.1441
479.64;	2.1294
479.90;	2.1147
480.17;	2.1001
480.43;	2.0854
480.69;	2.0707
480.96;	2.0561
481.22;	2.0414
481.49;	2.0268
481.75;	2.0121
482.02;	1.9975
482.28;	1.9829
482.54;	1.9683
482.81;	1.9537
483.07;	1.9391
483.34;	1.9246
483.60;	1.9100
483.87;	1.8955
484.13;	1.8810
484.40;	1.8665
484.66;	1.8520
484.92;	1.8376
485.19;	1.8232
485.45;	1.8088
485.72;	1.7944
485.98;	1.7801
486.25;	1.7658
486.51;	1.7515
486.78;	1.7373
487.04;	1.7230
487.30;	1.7089
487.57;	1.6947
487.83;	1.6806
488.10;	1.6665
488.36;	1.6525
488.63;	1.6385
488.89;	1.6246
489.15;	1.6107
489.42;	1.5968
489.68;	1.5830
489.95;	1.5692
490.21;	1.5555
490.48;	1.5418
490.74;	1.5281
491.01;	1.5145
491.27;	1.5010
491.53;	1.4875
491.80;	1.4740
492.06;	1.4606
492.33;	1.4473
492.59;	1.4340
492.86;	1.4208
493.12;	1.4076
493.39;	1.3945
493.65;	1.3814
493.91;	1.3684
494.18;	1.3554
494.44;	1.3425
494.71;	1.3297
494.97;	1.3169
495.24;	1.3042
495.50;	1.2915
495.77;	1.2789
496.03;	1.2664
496.29;	1.2539
496.56;	1.2415
496.82;	1.2292
497.09;	1.2169
497.35;	1.2047
497.62;	1.1925
497.88;	1.1804
498.14;	1.1684
498.41;	1.1565
498.67;	1.1446
498.94;	1.1328
499.20;	1.1210
499.47;	1.1093
499.73;	1.0977
500.00;	1.0862
500.26;	1.0747
500.52;	1.0633
500.79;	1.0520
501.05;	1.0407
501.32;	1.0295
501.58;	1.0184
501.85;	1.0074
502.11;	0.9964
502.38;	0.9855
502.64;	0.9747
502.90;	0.9639
503.17;	0.9532
503.43;	0.9426
503.70;	0.9321
503.96;	0.9217
504.23;	0.9113
504.49;	0.9010
504.75;	0.8907
505.02;	0.8806
505.28;	0.8705
505.55;	0.8605
505.81;	0.8505
506.08;	0.8407
506.34;	0.8309
506.61;	0.8212
506.87;	0.8115
507.13;	0.8020
507.40;	0.7925
507.66;	0.7831
507.93;	0.7737
508.19;	0.7645
508.46;	0.7553
508.72;	0.7462
508.99;	0.7371
509.25;	0.7282
509.51;	0.7193
509.78;	0.7105
510.04;	0.7017
510.31;	0.6931
510.57;	0.6845
510.84;	0.6760
511.10;	0.6676
511.36;	0.6592
511.63;	0.6509
511.89;	0.6427
512.16;	0.6346
512.42;	0.6265
512.69;	0.6185
512.95;	0.6106
513.22;	0.6027
513.48;	0.5950
513.74;	0.5873
514.01;	0.5796
514.27;	0.5721
514.54;	0.5646
514.80;	0.5572
515.07;	0.5499
515.33;	0.5426
515.60;	0.5354
515.86;	0.5283
516.12;	0.5212
516.39;	0.5143
516.65;	0.5074
516.92;	0.5005
517.18;	0.4937
517.45;	0.4870
517.71;	0.4804
517.98;	0.4739
518.24;	0.4674
518.50;	0.4609
518.77;	0.4546
519.03;	0.4483
519.30;	0.4421
519.56;	0.4359
519.83;	0.4298
520.09;	0.4238
520.35;	0.4178
520.62;	0.4119
520.88;	0.4061
521.15;	0.4004
521.41;	0.3947
521.68;	0.3890
521.94;	0.3835
522.21;	0.3780
522.47;	0.3725
522.73;	0.3671
523.00;	0.3618
523.26;	0.3566
523.53;	0.3514
523.79;	0.3462
524.06;	0.3412
524.32;	0.3361
524.59;	0.3312
524.85;	0.3263
525.11;	0.3215
525.38;	0.3167
525.64;	0.3120
525.91;	0.3073
526.17;	0.3027
526.44;	0.2981
526.70;	0.2937
526.96;	0.2892
527.23;	0.2848
527.49;	0.2805
527.76;	0.2762
528.02;	0.2720
528.29;	0.2679
528.55;	0.2638
528.82;	0.2597
529.08;	0.2557
529.34;	0.2518
529.61;	0.2479
529.87;	0.2440
530.14;	0.2402
530.40;	0.2365
530.67;	0.2328
530.93;	0.2291
531.20;	0.2255
531.46;	0.2220
531.72;	0.2185
531.99;	0.2150
532.25;	0.2116
532.52;	0.2082
532.78;	0.2049
533.05;	0.2017
533.31;	0.1984
533.57;	0.1953
533.84;	0.1921
534.10;	0.1890
534.37;	0.1860
534.63;	0.1830
534.90;	0.1800
535.16;	0.1771
535.43;	0.1742
535.69;	0.1714
535.95;	0.1686
536.22;	0.1659
536.48;	0.1632
536.75;	0.1605
537.01;	0.1579
537.28;	0.1553
537.54;	0.1527
537.81;	0.1502
538.07;	0.1477
538.33;	0.1453
538.60;	0.1429
538.86;	0.1405
539.13;	0.1382
539.39;	0.1359
539.66;	0.1336
539.92;	0.1314
540.19;	0.1292
540.45;	0.1271
540.71;	0.1250
540.98;	0.1229
541.24;	0.1208
541.51;	0.1188
541.77;	0.1168
542.04;	0.1148
542.30;	0.1129
542.56;	0.1110
542.83;	0.1092
543.09;	0.1073
543.36;	0.1055
543.62;	0.1038
543.89;	0.1020
544.15;	0.1003
544.42;	0.0986
544.68;	0.0969
544.94;	0.0953
545.21;	0.0937
545.47;	0.0921
545.74;	0.0906
546.00;	0.0891
546.27;	0.0876
546.53;	0.0861
546.80;	0.0847
547.06;	0.0832
547.32;	0.0818
547.59;	0.0805
547.85;	0.0791
548.12;	0.0778
548.38;	0.0765
548.65;	0.0752
548.91;	0.0740
549.17;	0.0727
549.44;	0.0715
549.70;	0.0704
549.97;	0.0692
550.23;	0.0680
550.50;	0.0669
550.76;	0.0658
551.03;	0.0647
551.29;	0.0637
551.55;	0.0626
551.82;	0.0616
552.08;	0.0606
552.35;	0.0596
552.61;	0.0587
552.88;	0.0577
553.14;	0.0568
553.41;	0.0559
553.67;	0.0550
553.93;	0.0541
554.20;	0.0533
554.46;	0.0524
554.73;	0.0516
554.99;	0.0508
555.26;	0.0500
555.52;	0.0492
555.78;	0.0485
556.05;	0.0477
556.31;	0.0470
556.58;	0.0463
556.84;	0.0456
557.11;	0.0449
557.37;	0.0442
557.64;	0.0436
557.90;	0.0429
558.16;	0.0423
558.43;	0.0417
558.69;	0.0411
558.96;	0.0405
559.22;	0.0399
559.49;	0.0394
559.75;	0.0388
560.02;	0.0383
560.28;	0.0378
560.54;	0.0373
560.81;	0.0368
561.07;	0.0363
561.34;	0.0358
561.60;	0.0353
561.87;	0.0349
562.13;	0.0344
562.40;	0.0340
562.66;	0.0336
562.92;	0.0331
563.19;	0.0327
563.45;	0.0323
563.72;	0.0320
563.98;	0.0316
564.25;	0.0312
564.51;	0.0309
564.77;	0.0305
565.04;	0.0302
565.30;	0.0298
565.57;	0.0295
565.83;	0.0292
566.10;	0.0289
566.36;	0.0286
566.63;	0.0283
566.89;	0.0280
567.15;	0.0278
567.42;	0.0275
567.68;	0.0273
567.95;	0.0270
568.21;	0.0268
568.48;	0.0265
568.74;	0.0263
569.01;	0.0261
569.27;	0.0259
569.53;	0.0257
569.80;	0.0255
570.06;	0.0253
570.33;	0.0251
570.59;	0.0249
570.86;	0.0247
571.12;	0.0245
571.38;	0.0244
571.65;	0.0242
571.91;	0.0241
572.18;	0.0239
572.44;	0.0238
572.71;	0.0236
572.97;	0.0235
573.24;	0.0234
573.50;	0.0233
573.76;	0.0232
574.03;	0.0230
574.29;	0.0229
574.56;	0.0228
574.82;	0.0227
575.09;	0.0227
575.35;	0.0226
575.62;	0.0225
575.88;	0.0224
576.14;	0.0223
576.41;	0.0223
576.67;	0.0222
576.94;	0.0221
577.20;	0.0221
577.47;	0.0220
577.73;	0.0220
577.99;	0.0219
578.26;	0.0219
578.52;	0.0218
578.79;	0.0218
579.05;	0.0218
579.32;	0.0217
579.58;	0.0217
579.85;	0.0217
580.11;	0.0217
580.37;	0.0217
580.64;	0.0216
580.90;	0.0216
581.17;	0.0216
581.43;	0.0216
581.70;	0.0216
581.96;	0.0216
582.23;	0.0216
582.49;	0.0216
582.75;	0.0216
583.02;	0.0216
583.28;	0.0217
583.55;	0.0217
583.81;	0.0217
584.08;	0.0217
584.34;	0.0217
584.60;	0.0218
584.87;	0.0218
585.13;	0.0218
585.40;	0.0219
585.66;	0.0219
585.93;	0.0219
586.19;	0.0220
586.46;	0.0220
586.72;	0.0220
586.98;	0.0221
587.25;	0.0221
587.51;	0.0222
587.78;	0.0222
588.04;	0.0223
588.31;	0.0223
588.57;	0.0224
588.84;	0.0225
589.10;	0.0225
589.36;	0.0226
589.63;	0.0226
589.89;	0.0227
590.16;	0.0228
590.42;	0.0228
590.69;	0.0229
590.95;	0.0230
591.22;	0.0230
591.48;	0.0231
591.74;	0.0232
592.01;	0.0233
592.27;	0.0233
592.54;	0.0234
592.80;	0.0235
593.07;	0.0236
593.33;	0.0236
593.59;	0.0237
593.86;	0.0238
594.12;	0.0239
594.39;	0.0240
594.65;	0.0241
594.92;	0.0241
595.18;	0.0242
595.45;	0.0243
595.71;	0.0244
595.97;	0.0245
596.24;	0.0246
596.50;	0.0247
596.77;	0.0248
597.03;	0.0249
597.30;	0.0250
597.56;	0.0251
597.83;	0.0252
598.09;	0.0253
598.35;	0.0254
598.62;	0.0255
598.88;	0.0256
599.15;	0.0257
599.41;	0.0258
599.68;	0.0259
599.94;	0.0260
600.20;	0.0261
600.47;	0.0262
600.73;	0.0263
601.00;	0.0264
601.26;	0.0265
601.53;	0.0266
601.79;	0.0267
602.06;	0.0268
602.32;	0.0269
602.58;	0.0270
602.85;	0.0271
603.11;	0.0272
603.38;	0.0274
603.64;	0.0275
603.91;	0.0276
604.17;	0.0277
604.44;	0.0278
604.70;	0.0279
604.96;	0.0280
605.23;	0.0281
605.49;	0.0283
605.76;	0.0284
606.02;	0.0285
606.29;	0.0286
606.55;	0.0287
606.81;	0.0288
607.08;	0.0290
607.34;	0.0291
607.61;	0.0292
607.87;	0.0293
608.14;	0.0294
608.40;	0.0295
608.67;	0.0297
608.93;	0.0298
609.19;	0.0299
609.46;	0.0300
609.72;	0.0301
609.99;	0.0303
610.25;	0.0304
610.52;	0.0305
610.78;	0.0306
611.05;	0.0307
611.31;	0.0309
611.57;	0.0310
611.84;	0.0311
612.10;	0.0312
612.37;	0.0313
612.63;	0.0315
612.90;	0.0316
613.16;	0.0317
613.43;	0.0318
613.69;	0.0319
613.95;	0.0321
614.22;	0.0322
614.48;	0.0323
614.75;	0.0324
615.01;	0.0326
615.28;	0.0327
615.54;	0.0328
615.80;	0.0329
616.07;	0.0330
616.33;	0.0332
616.60;	0.0333
616.86;	0.0334
617.13;	0.0335
617.39;	0.0337
617.66;	0.0338
617.92;	0.0339
618.18;	0.0340
618.45;	0.0342
618.71;	0.0343
618.98;	0.0344
619.24;	0.0345
619.51;	0.0346
619.77;	0.0348
620.04;	0.0349
620.30;	0.0350
620.56;	0.0351
620.83;	0.0353
621.09;	0.0354
621.36;	0.0355
621.62;	0.0356
621.89;	0.0358
622.15;	0.0359
622.41;	0.0360
622.68;	0.0361
622.94;	0.0362
623.21;	0.0364
623.47;	0.0365
623.74;	0.0366
624.00;	0.0367
624.27;	0.0369
624.53;	0.0370
624.79;	0.0371
625.06;	0.0372
625.32;	0.0373
625.59;	0.0375
625.85;	0.0376
626.12;	0.0377
626.38;	0.0378
626.65;	0.0379
626.91;	0.0381
627.17;	0.0382
627.44;	0.0383
627.70;	0.0384
627.97;	0.0386
628.23;	0.0387
628.50;	0.0388
628.76;	0.0389
629.02;	0.0390
629.29;	0.0391
629.55;	0.0393
629.82;	0.0394
630.08;	0.0395
630.35;	0.0396
630.61;	0.0397
630.88;	0.0399
631.14;	0.0400
631.40;	0.0401
631.67;	0.0402
631.93;	0.0403
632.20;	0.0404
632.46;	0.0406
632.73;	0.0407
632.99;	0.0408
633.26;	0.0409
633.52;	0.0410
633.78;	0.0411
634.05;	0.0412
634.31;	0.0414
634.58;	0.0415
634.84;	0.0416
635.11;	0.0417
635.37;	0.0418
635.64;	0.0419
635.90;	0.0420
636.16;	0.0421
636.43;	0.0422
636.69;	0.0424
636.96;	0.0425
637.22;	0.0426
637.49;	0.0427
637.75;	0.0428
638.01;	0.0429
638.28;	0.0430
638.54;	0.0431
638.81;	0.0432
639.07;	0.0433
639.34;	0.0434
639.60;	0.0435
639.87;	0.0437
640.13;	0.0438
640.39;	0.0439
640.66;	0.0440
640.92;	0.0441
641.19;	0.0442
641.45;	0.0443
641.72;	0.0444
641.98;	0.0445
642.25;	0.0446
642.51;	0.0447
642.77;	0.0448
643.04;	0.0449
643.30;	0.0450
643.57;	0.0451
643.83;	0.0452
644.10;	0.0453
644.36;	0.0454
644.62;	0.0455
644.89;	0.0456
645.15;	0.0457
645.42;	0.0458
645.68;	0.0459
645.95;	0.0460
646.21;	0.0461
646.48;	0.0462
646.74;	0.0462
647.00;	0.0463
647.27;	0.0464
647.53;	0.0465
647.80;	0.0466
648.06;	0.0467
648.33;	0.0468
648.59;	0.0469
648.86;	0.0470
649.12;	0.0471
649.38;	0.0472
649.65;	0.0472
649.91;	0.0473
650.18;	0.0474
650.44;	0.0475
650.71;	0.0476
650.97;	0.0477
651.23;	0.0478
651.50;	0.0478
651.76;	0.0479
652.03;	0.0480
652.29;	0.0481
652.56;	0.0482
652.82;	0.0482
653.09;	0.0483
653.35;	0.0484
653.61;	0.0485
653.88;	0.0486
654.14;	0.0486
654.41;	0.0487
654.67;	0.0488
654.94;	0.0489
655.20;	0.0489
655.47;	0.0490
655.73;	0.0491
655.99;	0.0492
656.26;	0.0492
656.52;	0.0493
656.79;	0.0494
657.05;	0.0494
657.32;	0.0495
657.58;	0.0496
657.85;	0.0496
658.11;	0.0497
658.37;	0.0498
658.64;	0.0498
658.90;	0.0499
659.17;	0.0500
659.43;	0.0500
659.70;	0.0501
659.96;	0.0502
660.22;	0.0502
660.49;	0.0503
660.75;	0.0503
661.02;	0.0504
661.28;	0.0505
661.55;	0.0505
661.81;	0.0506
662.08;	0.0506
662.34;	0.0507
662.60;	0.0508
662.87;	0.0508
663.13;	0.0509
663.40;	0.0509
663.66;	0.0510
663.93;	0.0510
664.19;	0.0511
664.46;	0.0511
664.72;	0.0512
664.98;	0.0512
665.25;	0.0513
665.51;	0.0513
665.78;	0.0514
666.04;	0.0514
666.31;	0.0514
666.57;	0.0515
666.83;	0.0515
667.10;	0.0516
667.36;	0.0516
667.63;	0.0517
667.89;	0.0517
668.16;	0.0517
668.42;	0.0518
668.69;	0.0518
668.95;	0.0519
669.21;	0.0519
669.48;	0.0519
669.74;	0.0520
670.01;	0.0520
670.27;	0.0520
670.54;	0.0521
670.80;	0.0521
671.07;	0.0521
671.33;	0.0522
671.59;	0.0522
671.86;	0.0522
672.12;	0.0522
672.39;	0.0523
672.65;	0.0523
672.92;	0.0523
673.18;	0.0523
673.44;	0.0524
673.71;	0.0524
673.97;	0.0524
674.24;	0.0524
674.50;	0.0525
674.77;	0.0525
675.03;	0.0525
675.30;	0.0525
675.56;	0.0525
675.82;	0.0525
676.09;	0.0526
676.35;	0.0526
676.62;	0.0526
676.88;	0.0526
677.15;	0.0526
677.41;	0.0526
677.68;	0.0526
677.94;	0.0526
678.20;	0.0527
678.47;	0.0527
678.73;	0.0527
679.00;	0.0527
679.26;	0.0527
679.53;	0.0527
679.79;	0.0527
680.06;	0.0527
680.32;	0.0527
680.58;	0.0527
680.85;	0.0527
681.11;	0.0527
681.38;	0.0527
681.64;	0.0527
681.91;	0.0527
682.17;	0.0527
682.43;	0.0527
682.70;	0.0527
682.96;	0.0527
683.23;	0.0527
683.49;	0.0527
683.76;	0.0527
684.02;	0.0526
684.29;	0.0526
684.55;	0.0526
684.81;	0.0526
685.08;	0.0526
685.34;	0.0526
685.61;	0.0526
685.87;	0.0526
686.14;	0.0525
686.40;	0.0525
686.67;	0.0525
686.93;	0.0525
687.19;	0.0525
687.46;	0.0525
687.72;	0.0524
687.99;	0.0524
688.25;	0.0524
688.52;	0.0524
688.78;	0.0523
689.04;	0.0523
689.31;	0.0523
689.57;	0.0523
689.84;	0.0522
690.10;	0.0522
690.37;	0.0522
690.63;	0.0522
690.90;	0.0521
691.16;	0.0521
691.42;	0.0521
691.69;	0.0520
691.95;	0.0520
692.22;	0.0520
692.48;	0.0519
692.75;	0.0519
693.01;	0.0519
693.28;	0.0518
693.54;	0.0518
693.80;	0.0517
694.07;	0.0517
694.33;	0.0517
694.60;	0.0516
694.86;	0.0516
695.13;	0.0515
695.39;	0.0515
695.65;	0.0515
695.92;	0.0514
696.18;	0.0514
696.45;	0.0513
696.71;	0.0513
696.98;	0.0512
697.24;	0.0512
697.51;	0.0511
697.77;	0.0511
698.03;	0.0510
698.30;	0.0510
698.56;	0.0509
698.83;	0.0509
699.09;	0.0508
699.36;	0.0508
699.62;	0.0507
699.89;	0.0506
700.15;	0.0506
700.41;	0.0505
700.68;	0.0505
700.94;	0.0504
701.21;	0.0504
701.47;	0.0503
701.74;	0.0502
702.00;	0.0502
702.27;	0.0501
702.53;	0.0501
702.79;	0.0500
703.06;	0.0499
703.32;	0.0499
703.59;	0.0498
703.85;	0.0497
704.12;	0.0497
704.38;	0.0496
704.64;	0.0495
704.91;	0.0495
705.17;	0.0494
705.44;	0.0493
705.70;	0.0492
705.97;	0.0492
706.23;	0.0491
706.50;	0.0490
706.76;	0.0489
707.02;	0.0489
707.29;	0.0488
707.55;	0.0487
707.82;	0.0486
708.08;	0.0486
708.35;	0.0485
708.61;	0.0484
708.88;	0.0483
709.14;	0.0483
709.40;	0.0482
709.67;	0.0481
709.93;	0.0480
710.20;	0.0479
710.46;	0.0478
710.73;	0.0478
710.99;	0.0477
711.25;	0.0476
711.52;	0.0475
711.78;	0.0474
712.05;	0.0473
712.31;	0.0472
712.58;	0.0472
712.84;	0.0471
713.11;	0.0470
713.37;	0.0469
713.63;	0.0468
713.90;	0.0467
714.16;	0.0466
714.43;	0.0465
714.69;	0.0464
714.96;	0.0464
715.22;	0.0463
715.49;	0.0462
715.75;	0.0461
716.01;	0.0460
716.28;	0.0459
716.54;	0.0458
716.81;	0.0457
717.07;	0.0456
717.34;	0.0455
717.60;	0.0454
717.86;	0.0453
718.13;	0.0452
718.39;	0.0451
718.66;	0.0450
718.92;	0.0449
719.19;	0.0448
719.45;	0.0447
719.72;	0.0446
719.98;	0.0445
720.24;	0.0444
720.51;	0.0443
720.77;	0.0442
721.04;	0.0441
721.30;	0.0440
721.57;	0.0439
721.83;	0.0438
722.10;	0.0437
722.36;	0.0436
722.62;	0.0435
722.89;	0.0433
723.15;	0.0432
723.42;	0.0431
723.68;	0.0430
723.95;	0.0429
724.21;	0.0428
724.48;	0.0427
724.74;	0.0426
725.00;	0.0425
725.27;	0.0424
725.53;	0.0423
725.80;	0.0421
726.06;	0.0420
726.33;	0.0419
726.59;	0.0418
726.85;	0.0417
727.12;	0.0416
727.38;	0.0415
727.65;	0.0414
727.91;	0.0412
728.18;	0.0411
728.44;	0.0410
728.71;	0.0409
728.97;	0.0408
729.23;	0.0407
729.50;	0.0406
729.76;	0.0404
730.03;	0.0403
730.29;	0.0402
730.56;	0.0401
730.82;	0.0400
731.09;	0.0399
731.35;	0.0397
731.61;	0.0396
731.88;	0.0395
732.14;	0.0394
732.41;	0.0393
732.67;	0.0391
732.94;	0.0390
733.20;	0.0389
733.46;	0.0388
733.73;	0.0387
733.99;	0.0385
734.26;	0.0384
734.52;	0.0383
734.79;	0.0382
735.05;	0.0381
735.32;	0.0379
735.58;	0.0378
735.84;	0.0377
736.11;	0.0376
736.37;	0.0375
736.64;	0.0373
736.90;	0.0372
737.17;	0.0371
737.43;	0.0370
737.70;	0.0368
737.96;	0.0367
738.22;	0.0366
738.49;	0.0365
738.75;	0.0363
739.02;	0.0362
739.28;	0.0361
739.55;	0.0360
739.81;	0.0359
740.07;	0.0357
740.34;	0.0356
740.60;	0.0355
740.87;	0.0354
741.13;	0.0352
741.40;	0.0351
741.66;	0.0350
741.93;	0.0349
742.19;	0.0347
742.45;	0.0346
742.72;	0.0345
742.98;	0.0344
743.25;	0.0342
743.51;	0.0341
743.78;	0.0340
744.04;	0.0339
744.31;	0.0337
744.57;	0.0336
744.83;	0.0335
745.10;	0.0333
745.36;	0.0332
745.63;	0.0331
745.89;	0.0330
746.16;	0.0328
746.42;	0.0327
746.69;	0.0326
746.95;	0.0325
747.21;	0.0323
747.48;	0.0322
747.74;	0.0321
748.01;	0.0320
748.27;	0.0318
748.54;	0.0317
748.80;	0.0316
749.06;	0.0315
749.33;	0.0313
749.59;	0.0312
749.86;	0.0311
750.12;	0.0310
750.39;	0.0308
750.65;	0.0307
750.92;	0.0306
751.18;	0.0304
751.44;	0.0303
751.71;	0.0302
751.97;	0.0301
752.24;	0.0299
752.50;	0.0298
752.77;	0.0297
753.03;	0.0296
753.30;	0.0294
753.56;	0.0293
753.82;	0.0292
754.09;	0.0291
754.35;	0.0289
754.62;	0.0288
754.88;	0.0287
755.15;	0.0286
755.41;	0.0284
755.67;	0.0283
755.94;	0.0282
756.20;	0.0281
756.47;	0.0279
756.73;	0.0278
757.00;	0.0277
757.26;	0.0276
757.53;	0.0275
757.79;	0.0273
758.05;	0.0272
758.32;	0.0271
758.58;	0.0270
758.85;	0.0268
759.11;	0.0267
759.38;	0.0266
759.64;	0.0265
759.91;	0.0263
760.17;	0.0262
760.43;	0.0261
760.70;	0.0260
760.96;	0.0259
761.23;	0.0257
761.49;	0.0256
761.76;	0.0255
762.02;	0.0254
762.28;	0.0252
762.55;	0.0251
762.81;	0.0250
763.08;	0.0249
763.34;	0.0248
763.61;	0.0246
763.87;	0.0245
764.14;	0.0244
764.40;	0.0243
764.66;	0.0242
764.93;	0.0240
765.19;	0.0239
765.46;	0.0238
765.72;	0.0237
765.99;	0.0236
766.25;	0.0235
766.52;	0.0233
766.78;	0.0232
767.04;	0.0231
767.31;	0.0230
767.57;	0.0229
767.84;	0.0228
768.10;	0.0226
768.37;	0.0225
768.63;	0.0224
768.90;	0.0223
769.16;	0.0222
769.42;	0.0221
769.69;	0.0219
769.95;	0.0218
770.22;	0.0217
770.48;	0.0216
770.75;	0.0215
771.01;	0.0214
771.27;	0.0213
771.54;	0.0211
771.80;	0.0210
772.07;	0.0209
772.33;	0.0208
772.60;	0.0207
772.86;	0.0206
773.13;	0.0205
773.39;	0.0204
773.65;	0.0203
773.92;	0.0201
774.18;	0.0200
774.45;	0.0199
774.71;	0.0198
774.98;	0.0197
775.24;	0.0196
775.51;	0.0195
775.77;	0.0194
776.03;	0.0193
776.30;	0.0192
776.56;	0.0191
776.83;	0.0190
777.09;	0.0188
777.36;	0.0187
777.62;	0.0186
777.88;	0.0185
778.15;	0.0184
778.41;	0.0183
778.68;	0.0182
778.94;	0.0181
779.21;	0.0180
779.47;	0.0179
779.74;	0.0178
780.00;	0.0177
