wavelength, nm;	absorption
362.00;	0.3667
362.32;	0.3732
362.64;	0.3799
362.96;	0.3866
363.28;	0.3934
363.60;	0.4003
363.92;	0.4073
364.24;	0.4144
364.56;	0.4216
364.88;	0.4289
365.20;	0.4363
365.52;	0.4437
365.84;	0.4513
366.16;	0.4590
366.48;	0.4667
366.80;	0.4746
367.12;	0.4826
367.44;	0.4906
367.76;	0.4988
368.08;	0.5070
368.40;	0.5154
368.72;	0.5239
369.04;	0.5324
369.36;	0.5411
369.68;	0.5498
370.00;	0.5587
370.32;	0.5677
370.64;	0.5767
370.96;	0.5859
371.28;	0.5952
371.60;	0.6046
371.92;	0.6141
372.24;	0.6237
372.56;	0.6334
372.88;	0.6432
373.20;	0.6531
373.52;	0.6631
373.84;	0.6732
374.16;	0.6834
374.48;	0.6937
374.80;	0.7042
375.12;	0.7147
375.44;	0.7254
375.76;	0.7361
376.08;	0.7470
376.40;	0.7580
376.72;	0.7690
377.04;	0.7802
377.36;	0.7915
377.68;	0.8029
378.00;	0.8144
378.32;	0.8260
378.64;	0.8377
378.96;	0.8495
379.28;	0.8614
379.60;	0.8735
379.92;	0.8856
380.24;	0.8978
380.56;	0.9102
380.89;	0.9226
381.21;	0.9352
381.53;	0.9478
381.85;	0.9606
382.17;	0.9735
382.49;	0.9864
382.81;	0.9995
383.13;	1.0126
383.45;	1.0259
383.77;	1.0393
384.09;	1.0527
384.41;	1.0663
384.73;	1.0800
385.05;	1.0937
385.37;	1.1076
385.69;	1.1215
386.01;	1.1356
386.33;	1.1497
386.65;	1.1640
386.97;	1.1783
387.29;	1.1927
387.61;	1.2072
387.93;	1.2218
388.25;	1.2365
388.57;	1.2513
388.89;	1.2662
389.21;	1.2811
389.53;	1.2961
389.85;	1.3113
390.17;	1.3265
390.49;	1.3417
390.81;	1.3571
391.13;	1.3725
391.45;	1.3880
391.77;	1.4036
392.09;	1.4193
392.41;	1.4350
392.73;	1.4509
393.05;	1.4667
393.37;	1.4827
393.69;	1.4987
394.01;	1.5148
394.33;	1.5309
394.65;	1.5471
394.97;	1.5634
395.29;	1.5797
395.61;	1.5961
395.93;	1.6126
396.25;	1.6291
396.57;	1.6456
396.89;	1.6622
397.21;	1.6788
397.53;	1.6955
397.85;	1.7123
398.17;	1.7291
398.49;	1.7459
398.81;	1.7627
399.13;	1.7796
399.45;	1.7966
399.77;	1.8135
400.09;	1.8305
400.41;	1.8475
400.73;	1.8646
401.05;	1.8816
401.37;	1.8987
401.69;	1.9158
402.01;	1.9330
402.33;	1.9501
402.65;	1.9673
402.97;	1.9844
403.29;	2.0016
403.61;	2.0188
403.93;	2.0360
404.25;	2.0531
404.57;	2.0703
404.89;	2.0875
405.21;	2.1047
405.53;	2.1218
405.85;	2.1390
406.17;	2.1561
406.49;	2.1732
406.81;	2.1903
407.13;	2.2074
407.45;	2.2244
407.77;	2.2414
408.09;	2.2584
408.41;	2.2754
408.73;	2.2923
409.05;	2.3092
409.37;	2.3260
409.69;	2.3428
410.01;	2.3596
410.33;	2.3763
410.65;	2.3930
410.97;	2.4096
411.29;	2.4261
411.61;	2.4426
411.93;	2.4590
412.25;	2.4754
412.57;	2.4917
412.89;	2.5079
413.21;	2.5240
413.53;	2.5401
413.85;	2.5561
414.17;	2.5720
414.49;	2.5878
414.81;	2.6035
415.13;	2.6192
415.45;	2.6347
415.77;	2.6502
416.09;	2.6655
416.41;	2.6808
416.73;	2.6960
417.05;	2.7110
417.37;	2.7259
417.69;	2.7408
418.01;	2.7555
418.33;	2.7701
418.66;	2.7845
418.98;	2.7989
419.30;	2.8131
419.62;	2.8272
419.94;	2.8412
420.26;	2.8550
420.58;	2.8687
420.90;	2.8822
421.22;	2.8957
421.54;	2.9089
421.86;	2.9220
422.18;	2.9350
422.50;	2.9478
422.82;	2.9605
423.14;	2.9730
423.46;	2.9854
423.78;	2.9976
424.10;	3.0096
424.42;	3.0215
424.74;	3.0331
425.06;	3.0447
425.38;	3.0560
425.70;	3.0672
426.02;	3.0782
426.34;	3.0890
426.66;	3.0996
426.98;	3.1101
427.30;	3.1204
427.62;	3.1304
427.94;	3.1403
428.26;	3.1500
428.58;	3.1595
428.90;	3.1688
429.22;	3.1779
429.54;	3.1868
429.86;	3.1955
430.18;	3.2040
430.50;	3.2123
430.82;	3.2204
431.14;	3.2283
431.46;	3.2360
431.78;	3.2434
432.10;	3.2507
432.42;	3.2577
432.74;	3.2645
433.06;	3.2711
433.38;	3.2775
433.70;	3.2836
434.02;	3.2896
434.34;	3.2953
434.66;	3.3008
434.98;	3.3060
435.30;	3.3110
435.62;	3.3159
435.94;	3.3204
436.26;	3.3248
436.58;	3.3289
436.90;	3.3328
437.22;	3.3364
437.54;	3.3399
437.86;	3.3430
438.18;	3.3460
438.50;	3.3487
438.82;	3.3512
439.14;	3.3534
439.46;	3.3555
439.78;	3.3572
440.10;	3.3588
440.42;	3.3601
440.74;	3.3611
441.06;	3.3619
441.38;	3.3625
441.70;	3.3629
442.02;	3.3630
442.34;	3.3628
442.66;	3.3625
442.98;	3.3619
443.30;	3.3610
443.62;	3.3599
443.94;	3.3586
444.26;	3.3571
444.58;	3.3553
444.90;	3.3532
445.22;	3.3510
445.54;	3.3484
445.86;	3.3457
446.18;	3.3427
446.50;	3.3395
446.82;	3.3361
447.14;	3.3324
447.46;	3.3285
447.78;	3.3243
448.10;	3.3200
448.42;	3.3154
448.74;	3.3105
449.06;	3.3055
449.38;	3.3002
449.70;	3.2947
450.02;	3.2890
450.34;	3.2830
450.66;	3.2768
450.98;	3.2704
451.30;	3.2638
451.62;	3.2570
451.94;	3.2499
452.26;	3.2427
452.58;	3.2352
452.90;	3.2275
453.22;	3.2196
453.54;	3.2115
453.86;	3.2032
454.18;	3.1947
454.50;	3.1859
454.82;	3.1770
455.14;	3.1679
455.46;	3.1586
455.78;	3.1490
456.11;	3.1393
456.43;	3.1294
456.75;	3.1193
457.07;	3.1091
457.39;	3.0986
457.71;	3.0879
458.03;	3.0771
458.35;	3.0661
458.67;	3.0549
458.99;	3.0435
459.31;	3.0320
459.63;	3.0203
459.95;	3.0084
460.27;	2.9964
460.59;	2.9842
460.91;	2.9718
461.23;	2.9593
461.55;	2.9466
461.87;	2.9338
462.19;	2.9208
462.51;	2.9077
462.83;	2.8944
463.15;	2.8810
463.47;	2.8674
463.79;	2.8537
464.11;	2.8399
464.43;	2.8259
464.75;	2.8118
465.07;	2.7976
465.39;	2.7832
465.71;	2.7687
466.03;	2.7541
466.35;	2.7394
466.67;	2.7246
466.99;	2.7097
467.31;	2.6946
467.63;	2.6795
467.95;	2.6642
468.27;	2.6489
468.59;	2.6334
468.91;	2.6178
469.23;	2.6022
469.55;	2.5865
469.87;	2.5706
470.19;	2.5547
470.51;	2.5388
470.83;	2.5227
471.15;	2.5066
471.47;	2.4903
471.79;	2.4741
472.11;	2.4577
472.43;	2.4413
472.75;	2.4248
473.07;	2.4083
473.39;	2.3917
473.71;	2.3750
474.03;	2.3583
474.35;	2.3416
474.67;	2.3248
474.99;	2.3080
475.31;	2.2911
475.63;	2.2742
475.95;	2.2572
476.27;	2.2403
476.59;	2.2232
476.91;	2.2062
477.23;	2.1892
477.55;	2.1721
477.87;	2.1550
478.19;	2.1379
478.51;	2.1207
478.83;	2.1036
479.15;	2.0864
479.47;	2.0693
479.79;	2.0521
480.11;	2.0350
480.43;	2.0178
480.75;	2.0006
481.07;	1.9835
481.39;	1.9663
481.71;	1.9492
482.03;	1.9321
482.35;	1.9150
482.67;	1.8979
482.99;	1.8808
483.31;	1.8638
483.63;	1.8468
483.95;	1.8298
484.27;	1.8128
484.59;	1.7959
484.91;	1.7790
485.23;	1.7621
485.55;	1.7453
485.87;	1.7285
486.19;	1.7117
486.51;	1.6950
486.83;	1.6784
487.15;	1.6618
487.47;	1.6452
487.79;	1.6287
488.11;	1.6122
488.43;	1.5958
488.75;	1.5795
489.07;	1.5632
489.39;	1.5469
489.71;	1.5308
490.03;	1.5146
490.35;	1.4986
490.67;	1.4826
490.99;	1.4667
491.31;	1.4509
491.63;	1.4351
491.95;	1.4194
492.27;	1.4038
492.59;	1.3882
492.91;	1.3727
493.23;	1.3573
493.56;	1.3420
493.88;	1.3268
494.20;	1.3116
494.52;	1.2966
494.84;	1.2816
495.16;	1.2667
495.48;	1.2518
495.80;	1.2371
496.12;	1.2225
496.44;	1.2079
496.76;	1.1935
497.08;	1.1791
497.40;	1.1648
497.72;	1.1506
498.04;	1.1365
498.36;	1.1225
498.68;	1.1086
499.00;	1.0948
499.32;	1.0811
499.64;	1.0675
499.96;	1.0540
500.28;	1.0406
500.60;	1.0273
500.92;	1.0140
501.24;	1.0009
501.56;	0.9879
501.88;	0.9750
502.20;	0.9622
502.52;	0.9495
502.84;	0.9369
503.16;	0.9244
503.48;	0.9120
503.80;	0.8998
504.12;	0.8876
504.44;	0.8755
504.76;	0.8635
505.08;	0.8517
505.40;	0.8399
505.72;	0.8283
506.04;	0.8167
506.36;	0.8053
506.68;	0.7940
507.00;	0.7827
507.32;	0.7716
507.64;	0.7606
507.96;	0.7497
508.28;	0.7389
508.60;	0.7282
508.92;	0.7176
509.24;	0.7072
509.56;	0.6968
509.88;	0.6865
510.20;	0.6764
510.52;	0.6663
510.84;	0.6564
511.16;	0.6466
511.48;	0.6368
511.80;	0.6272
512.12;	0.6177
512.44;	0.6083
512.76;	0.5990
513.08;	0.5898
513.40;	0.5807
513.72;	0.5717
514.04;	0.5628
514.36;	0.5540
514.68;	0.5453
515.00;	0.5367
515.32;	0.5282
515.64;	0.5199
515.96;	0.5116
516.28;	0.5034
516.60;	0.4953
516.92;	0.4873
517.24;	0.4795
517.56;	0.4717
517.88;	0.4640
518.20;	0.4564
518.52;	0.4489
518.84;	0.4415
519.16;	0.4342
519.48;	0.4270
519.80;	0.4199
520.12;	0.4129
520.44;	0.4060
520.76;	0.3992
521.08;	0.3925
521.40;	0.3858
521.72;	0.3793
522.04;	0.3728
522.36;	0.3665
522.68;	0.3602
523.00;	0.3540
523.32;	0.3479
523.64;	0.3419
523.96;	0.3360
524.28;	0.3301
524.60;	0.3244
524.92;	0.3187
525.24;	0.3131
525.56;	0.3076
525.88;	0.3022
526.20;	0.2968
526.52;	0.2916
526.84;	0.2864
527.16;	0.2813
527.48;	0.2763
527.80;	0.2713
528.12;	0.2665
528.44;	0.2617
528.76;	0.2570
529.08;	0.2523
529.40;	0.2478
529.72;	0.2433
530.04;	0.2389
530.36;	0.2345
530.68;	0.2302
531.00;	0.2260
531.33;	0.2219
531.65;	0.2178
531.97;	0.2138
532.29;	0.2099
532.61;	0.2061
532.93;	0.2023
533.25;	0.1985
533.57;	0.1949
533.89;	0.1913
534.21;	0.1877
534.53;	0.1842
534.85;	0.1808
535.17;	0.1775
535.49;	0.1742
535.81;	0.1709
536.13;	0.1678
536.45;	0.1646
536.77;	0.1616
537.09;	0.1586
537.41;	0.1556
537.73;	0.1527
538.05;	0.1499
538.37;	0.1471
538.69;	0.1444
539.01;	0.1417
539.33;	0.1391
539.65;	0.1365
539.97;	0.1340
540.29;	0.1315
540.61;	0.1291
540.93;	0.1267
541.25;	0.1243
541.57;	0.1221
541.89;	0.1198
542.21;	0.1176
542.53;	0.1155
542.85;	0.1134
543.17;	0.1113
543.49;	0.1093
543.81;	0.1073
544.13;	0.1054
544.45;	0.1035
544.77;	0.1016
545.09;	0.0998
545.41;	0.0980
545.73;	0.0963
546.05;	0.0946
546.37;	0.0930
546.69;	0.0913
547.01;	0.0897
547.33;	0.0882
547.65;	0.0867
547.97;	0.0852
548.29;	0.0838
548.61;	0.0823
548.93;	0.0810
549.25;	0.0796
549.57;	0.0783
549.89;	0.0770
550.21;	0.0758
550.53;	0.0745
550.85;	0.0734
551.17;	0.0722
551.49;	0.0711
551.81;	0.0700
552.13;	0.0689
552.45;	0.0678
552.77;	0.0668
553.09;	0.0658
553.41;	0.0648
553.73;	0.0639
554.05;	0.0630
554.37;	0.0621
554.69;	0.0612
555.01;	0.0604
555.33;	0.0596
555.65;	0.0588
555.97;	0.0580
556.29;	0.0572
556.61;	0.0565
556.93;	0.0558
557.25;	0.0551
557.57;	0.0545
557.89;	0.0538
558.21;	0.0532
558.53;	0.0526
558.85;	0.0520
559.17;	0.0514
559.49;	0.0509
559.81;	0.0503
560.13;	0.0498
560.45;	0.0493
560.77;	0.0489
561.09;	0.0484
561.41;	0.0480
561.73;	0.0475
562.05;	0.0471
562.37;	0.0467
562.69;	0.0463
563.01;	0.0460
563.33;	0.0456
563.65;	0.0453
563.97;	0.0450
564.29;	0.0447
564.61;	0.0444
564.93;	0.0441
565.25;	0.0438
565.57;	0.0436
565.89;	0.0433
566.21;	0.0431
566.53;	0.0429
566.85;	0.0427
567.17;	0.0425
567.49;	0.0423
567.81;	0.0421
568.13;	0.0420
568.45;	0.0418
568.78;	0.0417
569.10;	0.0416
569.42;	0.0415
569.74;	0.0414
570.06;	0.0413
570.38;	0.0412
570.70;	0.0411
571.02;	0.0410
571.34;	0.0410
571.66;	0.0409
571.98;	0.0409
572.30;	0.0409
572.62;	0.0408
572.94;	0.0408
573.26;	0.0408
573.58;	0.0408
573.90;	0.0408
574.22;	0.0408
574.54;	0.0408
574.86;	0.0409
575.18;	0.0409
575.50;	0.0410
575.82;	0.0410
576.14;	0.0411
576.46;	0.0411
576.78;	0.0412
577.10;	0.0413
577.42;	0.0414
577.74;	0.0414
578.06;	0.0415
578.38;	0.0416
578.70;	0.0418
579.02;	0.0419
579.34;	0.0420
579.66;	0.0421
579.98;	0.0422
580.30;	0.0424
580.62;	0.0425
580.94;	0.0426
581.26;	0.0428
581.58;	0.0429
581.90;	0.0431
582.22;	0.0433
582.54;	0.0434
582.86;	0.0436
583.18;	0.0438
583.50;	0.0439
583.82;	0.0441
584.14;	0.0443
584.46;	0.0445
584.78;	0.0447
585.10;	0.0449
585.42;	0.0451
585.74;	0.0453
586.06;	0.0455
586.38;	0.0457
586.70;	0.0459
587.02;	0.0461
587.34;	0.0464
587.66;	0.0466
587.98;	0.0468
588.30;	0.0470
588.62;	0.0473
588.94;	0.0475
589.26;	0.0478
589.58;	0.0480
589.90;	0.0482
590.22;	0.0485
590.54;	0.0487
590.86;	0.0490
591.18;	0.0492
591.50;	0.0495
591.82;	0.0498
592.14;	0.0500
592.46;	0.0503
592.78;	0.0506
593.10;	0.0508
593.42;	0.0511
593.74;	0.0514
594.06;	0.0516
594.38;	0.0519
594.70;	0.0522
595.02;	0.0525
595.34;	0.0528
595.66;	0.0530
595.98;	0.0533
596.30;	0.0536
596.62;	0.0539
596.94;	0.0542
597.26;	0.0545
597.58;	0.0548
597.90;	0.0551
598.22;	0.0554
598.54;	0.0557
598.86;	0.0560
599.18;	0.0563
599.50;	0.0566
599.82;	0.0569
600.14;	0.0572
600.46;	0.0575
600.78;	0.0578
601.10;	0.0581
601.42;	0.0584
601.74;	0.0587
602.06;	0.0590
602.38;	0.0594
602.70;	0.0597
603.02;	0.0600
603.34;	0.0603
603.66;	0.0606
603.98;	0.0609
604.30;	0.0613
604.62;	0.0616
604.94;	0.0619
605.26;	0.0622
605.58;	0.0625
605.90;	0.0629
606.22;	0.0632
606.55;	0.0635
606.87;	0.0638
607.19;	0.0642
607.51;	0.0645
607.83;	0.0648
608.15;	0.0651
608.47;	0.0655
608.79;	0.0658
609.11;	0.0661
609.43;	0.0665
609.75;	0.0668
610.07;	0.0671
610.39;	0.0675
610.71;	0.0678
611.03;	0.0681
611.35;	0.0685
611.67;	0.0688
611.99;	0.0691
612.31;	0.0695
612.63;	0.0698
612.95;	0.0701
613.27;	0.0705
613.59;	0.0708
613.91;	0.0711
614.23;	0.0715
614.55;	0.0718
614.87;	0.0721
615.19;	0.0725
615.51;	0.0728
615.83;	0.0731
616.15;	0.0735
616.47;	0.0738
616.79;	0.0741
617.11;	0.0745
617.43;	0.0748
617.75;	0.0752
618.07;	0.0755
618.39;	0.0758
618.71;	0.0762
619.03;	0.0765
619.35;	0.0768
619.67;	0.0772
619.99;	0.0775
620.31;	0.0778
620.63;	0.0782
620.95;	0.0785
621.27;	0.0788
621.59;	0.0792
621.91;	0.0795
622.23;	0.0798
622.55;	0.0802
622.87;	0.0805
623.19;	0.0808
623.51;	0.0812
623.83;	0.0815
624.15;	0.0818
624.47;	0.0822
624.79;	0.0825
625.11;	0.0828
625.43;	0.0831
625.75;	0.0835
626.07;	0.0838
626.39;	0.0841
626.71;	0.0845
627.03;	0.0848
627.35;	0.0851
627.67;	0.0854
627.99;	0.0858
628.31;	0.0861
628.63;	0.0864
628.95;	0.0867
629.27;	0.0870
629.59;	0.0874
629.91;	0.0877
630.23;	0.0880
630.55;	0.0883
630.87;	0.0886
631.19;	0.0889
631.51;	0.0893
631.83;	0.0896
632.15;	0.0899
632.47;	0.0902
632.79;	0.0905
633.11;	0.0908
633.43;	0.0911
633.75;	0.0914
634.07;	0.0917
634.39;	0.0921
634.71;	0.0924
635.03;	0.0927
635.35;	0.0930
635.67;	0.0933
635.99;	0.0936
636.31;	0.0939
636.63;	0.0942
636.95;	0.0945
637.27;	0.0948
637.59;	0.0950
637.91;	0.0953
638.23;	0.0956
638.55;	0.0959
638.87;	0.0962
639.19;	0.0965
639.51;	0.0968
639.83;	0.0971
640.15;	0.0974
640.47;	0.0976
640.79;	0.0979
641.11;	0.0982
641.43;	0.0985
641.75;	0.0988
642.07;	0.0990
642.39;	0.0993
642.71;	0.0996
643.03;	0.0999
643.35;	0.1001
643.67;	0.1004
644.00;	0.1007
644.32;	0.1009
644.64;	0.1012
644.96;	0.1014
645.28;	0.1017
645.60;	0.1020
645.92;	0.1022
646.24;	0.1025
646.56;	0.1027
646.88;	0.1030
647.20;	0.1032
647.52;	0.1035
647.84;	0.1037
648.16;	0.1040
648.48;	0.1042
648.80;	0.1044
649.12;	0.1047
649.44;	0.1049
649.76;	0.1052
650.08;	0.1054
650.40;	0.1056
650.72;	0.1059
651.04;	0.1061
651.36;	0.1063
651.68;	0.1065
652.00;	0.1068
652.32;	0.1070
652.64;	0.1072
652.96;	0.1074
653.28;	0.1076
653.60;	0.1078
653.92;	0.1080
654.24;	0.1082
654.56;	0.1085
654.88;	0.1087
655.20;	0.1089
655.52;	0.1091
655.84;	0.1093
656.16;	0.1094
656.48;	0.1096
656.80;	0.1098
657.12;	0.1100
657.44;	0.1102
657.76;	0.1104
658.08;	0.1106
658.40;	0.1108
658.72;	0.1109
659.04;	0.1111
659.36;	0.1113
659.68;	0.1114
660.00;	0.1116
660.32;	0.1118
660.64;	0.1119
660.96;	0.1121
661.28;	0.1123
661.60;	0.1124
661.92;	0.1126
662.24;	0.1127
662.56;	0.1129
662.88;	0.1130
663.20;	0.1132
663.52;	0.1133
663.84;	0.1135
664.16;	0.1136
664.48;	0.1137
664.80;	0.1139
665.12;	0.1140
665.44;	0.1141
665.76;	0.1142
666.08;	0.1144
666.40;	0.1145
666.72;	0.1146
667.04;	0.1147
667.36;	0.1148
667.68;	0.1149
668.00;	0.1151
668.32;	0.1152
668.64;	0.1153
668.96;	0.1154
669.28;	0.1155
669.60;	0.1156
669.92;	0.1156
670.24;	0.1157
670.56;	0.1158
670.88;	0.1159
671.20;	0.1160
671.52;	0.1161
671.84;	0.1161
672.16;	0.1162
672.48;	0.1163
672.80;	0.1164
673.12;	0.1164
673.44;	0.1165
673.76;	0.1166
674.08;	0.1166
674.40;	0.1167
674.72;	0.1167
675.04;	0.1168
675.36;	0.1168
675.68;	0.1169
676.00;	0.1169
676.32;	0.1170
676.64;	0.1170
676.96;	0.1170
677.28;	0.1171
677.60;	0.1171
677.92;	0.1171
678.24;	0.1171
678.56;	0.1172
678.88;	0.1172
679.20;	0.1172
679.52;	0.1172
679.84;	0.1172
680.16;	0.1172
680.48;	0.1172
680.80;	0.1172
681.12;	0.1172
681.44;	0.1172
681.77;	0.1172
682.09;	0.1172
682.41;	0.1172
682.73;	0.1172
683.05;	0.1172
683.37;	0.1172
683.69;	0.1171
684.01;	0.1171
684.33;	0.1171
684.65;	0.1171
684.97;	0.1170
685.29;	0.1170
685.61;	0.1170
685.93;	0.1169
686.25;	0.1169
686.57;	0.1168
686.89;	0.1168
687.21;	0.1167
687.53;	0.1167
687.85;	0.1166
688.17;	0.1166
688.49;	0.1165
688.81;	0.1164
689.13;	0.1164
689.45;	0.1163
689.77;	0.1162
690.09;	0.1162
690.41;	0.1161
690.73;	0.1160
691.05;	0.1159
691.37;	0.1158
691.69;	0.1158
692.01;	0.1157
692.33;	0.1156
692.65;	0.1155
692.97;	0.1154
693.29;	0.1153
693.61;	0.1152
693.93;	0.1151
694.25;	0.1150
694.57;	0.1149
694.89;	0.1147
695.21;	0.1146
695.53;	0.1145
695.85;	0.1144
696.17;	0.1143
696.49;	0.1141
696.81;	0.1140
697.13;	0.1139
697.45;	0.1138
697.77;	0.1136
698.09;	0.1135
698.41;	0.1133
698.73;	0.1132
699.05;	0.1131
699.37;	0.1129
699.69;	0.1128
700.01;	0.1126
700.33;	0.1125
700.65;	0.1123
700.97;	0.1121
701.29;	0.1120
701.61;	0.1118
701.93;	0.1117
702.25;	0.1115
702.57;	0.1113
702.89;	0.1111
703.21;	0.1110
703.53;	0.1108
703.85;	0.1106
704.17;	0.1104
704.49;	0.1102
704.81;	0.1101
705.13;	0.1099
705.45;	0.1097
705.77;	0.1095
706.09;	0.1093
706.41;	0.1091
706.73;	0.1089
707.05;	0.1087
707.37;	0.1085
707.69;	0.1083
708.01;	0.1081
708.33;	0.1079
708.65;	0.1077
708.97;	0.1075
709.29;	0.1072
709.61;	0.1070
709.93;	0.1068
710.25;	0.1066
710.57;	0.1064
710.89;	0.1061
711.21;	0.1059
711.53;	0.1057
711.85;	0.1054
712.17;	0.1052
712.49;	0.1050
712.81;	0.1047
713.13;	0.1045
713.45;	0.1043
713.77;	0.1040
714.09;	0.1038
714.41;	0.1035
714.73;	0.1033
715.05;	0.1030
715.37;	0.1028
715.69;	0.1025
716.01;	0.1023
716.33;	0.1020
716.65;	0.1018
716.97;	0.1015
717.29;	0.1012
717.61;	0.1010
717.93;	0.1007
718.25;	0.1004
718.57;	0.1002
718.89;	0.0999
719.22;	0.0996
719.54;	0.0994
719.86;	0.0991
720.18;	0.0988
720.50;	0.0985
720.82;	0.0983
721.14;	0.0980
721.46;	0.0977
721.78;	0.0974
722.10;	0.0971
722.42;	0.0968
722.74;	0.0966
723.06;	0.0963
723.38;	0.0960
723.70;	0.0957
724.02;	0.0954
724.34;	0.0951
724.66;	0.0948
724.98;	0.0945
725.30;	0.0942
725.62;	0.0939
725.94;	0.0936
726.26;	0.0933
726.58;	0.0930
726.90;	0.0927
727.22;	0.0924
727.54;	0.0921
727.86;	0.0918
728.18;	0.0915
728.50;	0.0912
728.82;	0.0909
729.14;	0.0906
729.46;	0.0903
729.78;	0.0899
730.10;	0.0896
730.42;	0.0893
730.74;	0.0890
731.06;	0.0887
731.38;	0.0884
731.70;	0.0880
732.02;	0.0877
732.34;	0.0874
732.66;	0.0871
732.98;	0.0868
733.30;	0.0864
733.62;	0.0861
733.94;	0.0858
734.26;	0.0855
734.58;	0.0852
734.90;	0.0848
735.22;	0.0845
735.54;	0.0842
735.86;	0.0838
736.18;	0.0835
736.50;	0.0832
736.82;	0.0829
737.14;	0.0825
737.46;	0.0822
737.78;	0.0819
738.10;	0.0815
738.42;	0.0812
738.74;	0.0809
739.06;	0.0805
739.38;	0.0802
739.70;	0.0799
740.02;	0.0795
740.34;	0.0792
740.66;	0.0789
740.98;	0.0785
741.30;	0.0782
741.62;	0.0779
741.94;	0.0775
742.26;	0.0772
742.58;	0.0768
742.90;	0.0765
743.22;	0.0762
743.54;	0.0758
743.86;	0.0755
744.18;	0.0752
744.50;	0.0748
744.82;	0.0745
745.14;	0.0741
745.46;	0.0738
745.78;	0.0735
746.10;	0.0731
746.42;	0.0728
746.74;	0.0724
747.06;	0.0721
747.38;	0.0718
747.70;	0.0714
748.02;	0.0711
748.34;	0.0707
748.66;	0.0704
748.98;	0.0701
749.30;	0.0697
749.62;	0.0694
749.94;	0.0690
750.26;	0.0687
750.58;	0.0684
750.90;	0.0680
751.22;	0.0677
751.54;	0.0673
751.86;	0.0670
752.18;	0.0667
752.50;	0.0663
752.82;	0.0660
753.14;	0.0657
753.46;	0.0653
753.78;	0.0650
754.10;	0.0646
754.42;	0.0643
754.74;	0.0640
755.06;	0.0636
755.38;	0.0633
755.70;	0.0630
756.02;	0.0626
756.34;	0.0623
756.67;	0.0620
756.99;	0.0616
757.31;	0.0613
757.63;	0.0610
757.95;	0.0606
758.27;	0.0603
758.59;	0.0600
758.91;	0.0596
759.23;	0.0593
759.55;	0.0590
759.87;	0.0586
760.19;	0.0583
760.51;	0.0580
760.83;	0.0577
761.15;	0.0573
761.47;	0.0570
761.79;	0.0567
762.11;	0.0563
762.43;	0.0560
762.75;	0.0557
763.07;	0.0554
763.39;	0.0550
763.71;	0.0547
764.03;	0.0544
764.35;	0.0541
764.67;	0.0538
764.99;	0.0534
765.31;	0.0531
765.63;	0.0528
765.95;	0.0525
766.27;	0.0522
766.59;	0.0518
766.91;	0.0515
767.23;	0.0512
767.55;	0.0509
767.87;	0.0506
768.19;	0.0503
768.51;	0.0500
768.83;	0.0497
769.15;	0.0493
769.47;	0.0490
769.79;	0.0487
770.11;	0.0484
770.43;	0.0481
770.75;	0.0478
771.07;	0.0475
771.39;	0.0472
771.71;	0.0469
772.03;	0.0466
772.35;	0.0463
772.67;	0.0460
772.99;	0.0457
773.31;	0.0454
773.63;	0.0451
773.95;	0.0448
774.27;	0.0445
774.59;	0.0442
774.91;	0.0439
775.23;	0.0436
775.55;	0.0433
775.87;	0.0430
776.19;	0.0427
776.51;	0.0424
776.83;	0.0422
777.15;	0.0419
777.47;	0.0416
777.79;	0.0413
778.11;	0.0410
778.43;	0.0407
778.75;	0.0404
779.07;	0.0402
779.39;	0.0399
779.71;	0.0396
780.03;	0.0393
780.35;	0.0390
780.67;	0.0388
780.99;	0.0385
781.31;	0.0382
781.63;	0.0379
781.95;	0.0377
782.27;	0.0374
782.59;	0.0371
782.91;	0.0369
783.23;	0.0366
783.55;	0.0363
783.87;	0.0361
784.19;	0.0358
784.51;	0.0355
784.83;	0.0353
785.15;	0.0350
785.47;	0.0348
785.79;	0.0345
786.11;	0.0342
786.43;	0.0340
786.75;	0.0337
787.07;	0.0335
787.39;	0.0332
787.71;	0.0330
788.03;	0.0327
788.35;	0.0325
788.67;	0.0322
788.99;	0.0320
789.31;	0.0317
789.63;	0.0315
789.95;	0.0312
790.27;	0.0310
790.59;	0.0308
790.91;	0.0305
791.23;	0.0303
791.55;	0.0300
791.87;	0.0298
792.19;	0.0296
792.51;	0.0293
792.83;	0.0291
793.15;	0.0289
793.47;	0.0286
793.79;	0.0284
794.11;	0.0282
794.44;	0.0280
794.76;	0.0277
795.08;	0.0275
795.40;	0.0273
795.72;	0.0271
796.04;	0.0268
796.36;	0.0266
796.68;	0.0264
797.00;	0.0262
797.32;	0.0260
797.64;	0.0258
797.96;	0.0255
798.28;	0.0253
798.60;	0.0251
798.92;	0.0249
799.24;	0.0247
799.56;	0.0245
799.88;	0.0243
800.20;	0.0241
800.52;	0.0239
800.84;	0.0237
801.16;	0.0235
801.48;	0.0233
801.80;	0.0231
802.12;	0.0229
802.44;	0.0227
802.76;	0.0225
803.08;	0.0223
803.40;	0.0221
803.72;	0.0219
804.04;	0.0217
804.36;	0.0215
804.68;	0.0213
805.00;	0.0211
805.32;	0.0210
805.64;	0.0208
805.96;	0.0206
806.28;	0.0204
806.60;	0.0202
806.92;	0.0200
807.24;	0.0199
807.56;	0.0197
807.88;	0.0195
808.20;	0.0193
808.52;	0.0192
808.84;	0.0190
809.16;	0.0188
809.48;	0.0186
809.80;	0.0185
810.12;	0.0183
810.44;	0.0181
810.76;	0.0180
811.08;	0.0178
811.40;	0.0176
811.72;	0.0175
812.04;	0.0173
812.36;	0.0172
812.68;	0.0170
813.00;	0.0168
