wavelength, nm;	absorption
353.00;	0.2238
353.27;	0.2276
353.55;	0.2314
353.82;	0.2353
354.09;	0.2393
354.37;	0.2433
354.64;	0.2474
354.92;	0.2515
355.19;	0.2557
355.46;	0.2599
355.74;	0.2642
356.01;	0.2685
356.28;	0.2729
356.56;	0.2774
356.83;	0.2819
357.10;	0.2865
357.38;	0.2911
357.65;	0.2958
357.93;	0.3006
358.20;	0.3054
358.47;	0.3103
358.75;	0.3152
359.02;	0.3202
359.29;	0.3253
359.57;	0.3304
359.84;	0.3356
360.11;	0.3409
360.39;	0.3462
360.66;	0.3516
360.94;	0.3571
361.21;	0.3626
361.48;	0.3682
361.76;	0.3738
362.03;	0.3795
362.30;	0.3853
362.58;	0.3912
362.85;	0.3971
363.12;	0.4031
363.40;	0.4091
363.67;	0.4153
363.95;	0.4215
364.22;	0.4277
364.49;	0.4341
364.77;	0.4405
365.04;	0.4470
365.31;	0.4535
365.59;	0.4601
365.86;	0.4668
366.13;	0.4736
366.41;	0.4805
366.68;	0.4874
366.96;	0.4944
367.23;	0.5014
367.50;	0.5086
367.78;	0.5158
368.05;	0.5231
368.32;	0.5305
368.60;	0.5379
368.87;	0.5454
369.14;	0.5530
369.42;	0.5607
369.69;	0.5684
369.97;	0.5763
370.24;	0.5842
370.51;	0.5922
370.79;	0.6002
371.06;	0.6084
371.33;	0.6166
371.61;	0.6249
371.88;	0.6332
372.15;	0.6417
372.43;	0.6502
372.70;	0.6588
372.98;	0.6675
373.25;	0.6763
373.52;	0.6852
373.80;	0.6941
374.07;	0.7031
374.34;	0.7122
374.62;	0.7214
374.89;	0.7306
375.16;	0.7399
375.44;	0.7494
375.71;	0.7588
375.99;	0.7684
376.26;	0.7781
376.53;	0.7878
376.81;	0.7976
377.08;	0.8075
377.35;	0.8175
377.63;	0.8275
377.90;	0.8377
378.17;	0.8479
378.45;	0.8582
378.72;	0.8686
379.00;	0.8790
379.27;	0.8896
379.54;	0.9002
379.82;	0.9109
380.09;	0.9216
380.36;	0.9325
380.64;	0.9434
380.91;	0.9544
381.18;	0.9655
381.46;	0.9767
381.73;	0.9879
382.01;	0.9992
382.28;	1.0106
382.55;	1.0221
382.83;	1.0337
383.10;	1.0453
383.37;	1.0570
383.65;	1.0688
383.92;	1.0806
384.19;	1.0926
384.47;	1.1046
384.74;	1.1167
385.02;	1.1288
385.29;	1.1410
385.56;	1.1533
385.84;	1.1657
386.11;	1.1782
386.38;	1.1907
386.66;	1.2032
386.93;	1.2159
387.20;	1.2286
387.48;	1.2414
387.75;	1.2543
388.03;	1.2672
388.30;	1.2802
388.57;	1.2933
388.85;	1.3064
389.12;	1.3196
389.39;	1.3328
389.67;	1.3462
389.94;	1.3595
390.21;	1.3730
390.49;	1.3865
390.76;	1.4000
391.04;	1.4137
391.31;	1.4273
391.58;	1.4411
391.86;	1.4549
392.13;	1.4687
392.40;	1.4826
392.68;	1.4966
392.95;	1.5106
393.22;	1.5247
393.50;	1.5388
393.77;	1.5530
394.05;	1.5672
394.32;	1.5815
394.59;	1.5958
394.87;	1.6101
395.14;	1.6245
395.41;	1.6390
395.69;	1.6535
395.96;	1.6680
396.23;	1.6826
396.51;	1.6972
396.78;	1.7118
397.06;	1.7265
397.33;	1.7412
397.60;	1.7560
397.88;	1.7708
398.15;	1.7856
398.42;	1.8005
398.70;	1.8153
398.97;	1.8303
399.24;	1.8452
399.52;	1.8602
399.79;	1.8751
400.07;	1.8902
400.34;	1.9052
400.61;	1.9202
400.89;	1.9353
401.16;	1.9504
401.43;	1.9655
401.71;	1.9806
401.98;	1.9957
402.25;	2.0109
402.53;	2.0260
402.80;	2.0412
403.08;	2.0564
403.35;	2.0715
403.62;	2.0867
403.90;	2.1019
404.17;	2.1170
404.44;	2.1322
404.72;	2.1474
404.99;	2.1626
405.26;	2.1777
405.54;	2.1929
405.81;	2.2080
406.09;	2.2232
406.36;	2.2383
406.63;	2.2534
406.91;	2.2685
407.18;	2.2836
407.45;	2.2986
407.73;	2.3137
408.00;	2.3287
408.27;	2.3437
408.55;	2.3586
408.82;	2.3736
409.10;	2.3885
409.37;	2.4034
409.64;	2.4182
409.92;	2.4330
410.19;	2.4478
410.46;	2.4625
410.74;	2.4772
411.01;	2.4919
411.28;	2.5065
411.56;	2.5211
411.83;	2.5356
412.11;	2.5501
412.38;	2.5645
412.65;	2.5788
412.93;	2.5932
413.20;	2.6074
413.47;	2.6216
413.75;	2.6358
414.02;	2.6498
414.29;	2.6639
414.57;	2.6778
414.84;	2.6917
415.12;	2.7055
415.39;	2.7193
415.66;	2.7329
415.94;	2.7465
416.21;	2.7601
416.48;	2.7735
416.76;	2.7869
417.03;	2.8002
417.30;	2.8134
417.58;	2.8265
417.85;	2.8396
418.13;	2.8525
418.40;	2.8654
418.67;	2.8781
418.95;	2.8908
419.22;	2.9034
419.49;	2.9159
419.77;	2.9283
420.04;	2.9406
420.31;	2.9527
420.59;	2.9648
420.86;	2.9768
421.14;	2.9887
421.41;	3.0004
421.68;	3.0121
421.96;	3.0236
422.23;	3.0351
422.50;	3.0464
422.78;	3.0576
423.05;	3.0686
423.32;	3.0796
423.60;	3.0904
423.87;	3.1012
424.15;	3.1118
424.42;	3.1222
424.69;	3.1326
424.97;	3.1428
425.24;	3.1528
425.51;	3.1628
425.79;	3.1726
426.06;	3.1823
426.33;	3.1918
426.61;	3.2012
426.88;	3.2105
427.16;	3.2196
427.43;	3.2286
427.70;	3.2375
427.98;	3.2462
428.25;	3.2547
428.52;	3.2631
428.80;	3.2714
429.07;	3.2795
429.34;	3.2875
429.62;	3.2953
429.89;	3.3029
430.17;	3.3104
430.44;	3.3178
430.71;	3.3250
430.99;	3.3320
431.26;	3.3389
431.53;	3.3456
431.81;	3.3521
432.08;	3.3585
432.35;	3.3648
432.63;	3.3708
432.90;	3.3767
433.17;	3.3825
433.45;	3.3881
433.72;	3.3935
434.00;	3.3987
434.27;	3.4038
434.54;	3.4087
434.82;	3.4134
435.09;	3.4180
435.36;	3.4224
435.64;	3.4266
435.91;	3.4306
436.18;	3.4345
436.46;	3.4382
436.73;	3.4417
437.01;	3.4451
437.28;	3.4483
437.55;	3.4512
437.83;	3.4541
438.10;	3.4567
438.37;	3.4592
438.65;	3.4615
438.92;	3.4636
439.19;	3.4655
439.47;	3.4673
439.74;	3.4688
440.02;	3.4702
440.29;	3.4715
440.56;	3.4725
440.84;	3.4733
441.11;	3.4740
441.38;	3.4745
441.66;	3.4748
441.93;	3.4750
442.20;	3.4749
442.48;	3.4747
442.75;	3.4743
443.03;	3.4737
443.30;	3.4730
443.57;	3.4720
443.85;	3.4709
444.12;	3.4696
444.39;	3.4681
444.67;	3.4664
444.94;	3.4646
445.21;	3.4626
445.49;	3.4604
445.76;	3.4580
446.04;	3.4555
446.31;	3.4527
446.58;	3.4498
446.86;	3.4467
447.13;	3.4435
447.40;	3.4401
447.68;	3.4364
447.95;	3.4327
448.22;	3.4287
448.50;	3.4246
448.77;	3.4203
449.05;	3.4158
449.32;	3.4112
449.59;	3.4063
449.87;	3.4014
450.14;	3.3962
450.41;	3.3909
450.69;	3.3854
450.96;	3.3797
451.23;	3.3739
451.51;	3.3679
451.78;	3.3618
452.06;	3.3555
452.33;	3.3490
452.60;	3.3424
452.88;	3.3356
453.15;	3.3286
453.42;	3.3215
453.70;	3.3143
453.97;	3.3068
454.24;	3.2993
454.52;	3.2915
454.79;	3.2836
455.07;	3.2756
455.34;	3.2674
455.61;	3.2591
455.89;	3.2506
456.16;	3.2420
456.43;	3.2332
456.71;	3.2243
456.98;	3.2153
457.25;	3.2061
457.53;	3.1967
457.80;	3.1873
458.08;	3.1777
458.35;	3.1679
458.62;	3.1580
458.90;	3.1480
459.17;	3.1379
459.44;	3.1276
459.72;	3.1172
459.99;	3.1067
460.26;	3.0960
460.54;	3.0853
460.81;	3.0744
461.09;	3.0634
461.36;	3.0522
461.63;	3.0410
461.91;	3.0296
462.18;	3.0181
462.45;	3.0065
462.73;	2.9948
463.00;	2.9830
463.27;	2.9711
463.55;	2.9591
463.82;	2.9469
464.10;	2.9347
464.37;	2.9224
464.64;	2.9099
464.92;	2.8974
465.19;	2.8848
465.46;	2.8721
465.74;	2.8593
466.01;	2.8464
466.28;	2.8334
466.56;	2.8203
466.83;	2.8071
467.11;	2.7939
467.38;	2.7806
467.65;	2.7672
467.93;	2.7537
468.20;	2.7401
468.47;	2.7265
468.75;	2.7128
469.02;	2.6990
469.29;	2.6851
469.57;	2.6712
469.84;	2.6572
470.12;	2.6432
470.39;	2.6291
470.66;	2.6149
470.94;	2.6007
471.21;	2.5864
471.48;	2.5721
471.76;	2.5577
472.03;	2.5433
472.30;	2.5288
472.58;	2.5142
472.85;	2.4996
473.13;	2.4850
473.40;	2.4703
473.67;	2.4556
473.95;	2.4409
474.22;	2.4261
474.49;	2.4113
474.77;	2.3964
475.04;	2.3815
475.31;	2.3666
475.59;	2.3517
475.86;	2.3367
476.14;	2.3217
476.41;	2.3067
476.68;	2.2916
476.96;	2.2766
477.23;	2.2615
477.50;	2.2464
477.78;	2.2313
478.05;	2.2162
478.32;	2.2010
478.60;	2.1859
478.87;	2.1707
479.15;	2.1556
479.42;	2.1404
479.69;	2.1252
479.97;	2.1101
480.24;	2.0949
480.51;	2.0797
480.79;	2.0646
481.06;	2.0494
481.33;	2.0343
481.61;	2.0191
481.88;	2.0040
482.16;	1.9889
482.43;	1.9737
482.70;	1.9586
482.98;	1.9435
483.25;	1.9285
483.52;	1.9134
483.80;	1.8984
484.07;	1.8834
484.34;	1.8684
484.62;	1.8534
484.89;	1.8385
485.17;	1.8236
485.44;	1.8087
485.71;	1.7938
485.99;	1.7790
486.26;	1.7642
486.53;	1.7494
486.81;	1.7347
487.08;	1.7200
487.35;	1.7054
487.63;	1.6907
487.90;	1.6761
488.18;	1.6616
488.45;	1.6471
488.72;	1.6326
489.00;	1.6182
489.27;	1.6039
489.54;	1.5895
489.82;	1.5753
490.09;	1.5610
490.36;	1.5468
490.64;	1.5327
490.91;	1.5186
491.19;	1.5046
491.46;	1.4906
491.73;	1.4767
492.01;	1.4628
492.28;	1.4490
492.55;	1.4353
492.83;	1.4216
493.10;	1.4079
493.37;	1.3943
493.65;	1.3808
493.92;	1.3674
494.20;	1.3540
494.47;	1.3406
494.74;	1.3273
495.02;	1.3141
495.29;	1.3010
495.56;	1.2879
495.84;	1.2749
496.11;	1.2619
496.38;	1.2491
496.66;	1.2363
496.93;	1.2235
497.21;	1.2108
497.48;	1.1982
497.75;	1.1857
498.03;	1.1732
498.30;	1.1608
498.57;	1.1485
498.85;	1.1363
499.12;	1.1241
499.39;	1.1120
499.67;	1.1000
499.94;	1.0880
500.22;	1.0761
500.49;	1.0643
500.76;	1.0526
501.04;	1.0410
501.31;	1.0294
501.58;	1.0179
501.86;	1.0065
502.13;	0.9951
502.40;	0.9839
502.68;	0.9727
502.95;	0.9616
503.23;	0.9505
503.50;	0.9396
503.77;	0.9287
504.05;	0.9179
504.32;	0.9072
504.59;	0.8965
504.87;	0.8860
505.14;	0.8755
505.41;	0.8651
505.69;	0.8548
505.96;	0.8446
506.24;	0.8344
506.51;	0.8243
506.78;	0.8143
507.06;	0.8044
507.33;	0.7946
507.60;	0.7848
507.88;	0.7752
508.15;	0.7656
508.42;	0.7561
508.70;	0.7466
508.97;	0.7373
509.25;	0.7280
509.52;	0.7188
509.79;	0.7097
510.07;	0.7007
510.34;	0.6917
510.61;	0.6829
510.89;	0.6741
511.16;	0.6654
511.43;	0.6567
511.71;	0.6482
511.98;	0.6397
512.26;	0.6313
512.53;	0.6230
512.80;	0.6148
513.08;	0.6066
513.35;	0.5985
513.62;	0.5905
513.90;	0.5826
514.17;	0.5748
514.44;	0.5670
514.72;	0.5593
514.99;	0.5517
515.27;	0.5442
515.54;	0.5367
515.81;	0.5293
516.09;	0.5220
516.36;	0.5148
516.63;	0.5077
516.91;	0.5006
517.18;	0.4936
517.45;	0.4867
517.73;	0.4798
518.00;	0.4730
518.28;	0.4663
518.55;	0.4597
518.82;	0.4531
519.10;	0.4466
519.37;	0.4402
519.64;	0.4339
519.92;	0.4276
520.19;	0.4214
520.46;	0.4152
520.74;	0.4092
521.01;	0.4032
521.29;	0.3973
521.56;	0.3914
521.83;	0.3856
522.11;	0.3799
522.38;	0.3742
522.65;	0.3687
522.93;	0.3631
523.20;	0.3577
523.47;	0.3523
523.75;	0.3470
524.02;	0.3417
524.30;	0.3365
524.57;	0.3314
524.84;	0.3263
525.12;	0.3213
525.39;	0.3164
525.66;	0.3115
525.94;	0.3067
526.21;	0.3019
526.48;	0.2972
526.76;	0.2926
527.03;	0.2880
527.31;	0.2835
527.58;	0.2791
527.85;	0.2747
528.13;	0.2703
528.40;	0.2661
528.67;	0.2618
528.95;	0.2577
529.22;	0.2535
529.49;	0.2495
529.77;	0.2455
530.04;	0.2415
530.32;	0.2376
530.59;	0.2338
530.86;	0.2300
531.14;	0.2263
531.41;	0.2226
531.68;	0.2190
531.96;	0.2154
532.23;	0.2119
532.50;	0.2084
532.78;	0.2050
533.05;	0.2016
533.33;	0.1983
533.60;	0.1950
533.87;	0.1917
534.15;	0.1885
534.42;	0.1854
534.69;	0.1823
534.97;	0.1793
535.24;	0.1763
535.51;	0.1733
535.79;	0.1704
536.06;	0.1675
536.34;	0.1647
536.61;	0.1619
536.88;	0.1592
537.16;	0.1565
537.43;	0.1538
537.70;	0.1512
537.98;	0.1486
538.25;	0.1461
538.52;	0.1436
538.80;	0.1411
539.07;	0.1387
539.35;	0.1363
539.62;	0.1340
539.89;	0.1317
540.17;	0.1294
540.44;	0.1272
540.71;	0.1250
540.99;	0.1228
541.26;	0.1207
541.53;	0.1186
541.81;	0.1166
542.08;	0.1146
542.36;	0.1126
542.63;	0.1106
542.90;	0.1087
543.18;	0.1068
543.45;	0.1050
543.72;	0.1032
544.00;	0.1014
544.27;	0.0996
544.54;	0.0979
544.82;	0.0962
545.09;	0.0945
545.37;	0.0929
545.64;	0.0912
545.91;	0.0897
546.19;	0.0881
546.46;	0.0866
546.73;	0.0851
547.01;	0.0836
547.28;	0.0822
547.55;	0.0807
547.83;	0.0793
548.10;	0.0780
548.38;	0.0766
548.65;	0.0753
548.92;	0.0740
549.20;	0.0728
549.47;	0.0715
549.74;	0.0703
550.02;	0.0691
550.29;	0.0679
550.56;	0.0668
550.84;	0.0656
551.11;	0.0645
551.39;	0.0634
551.66;	0.0624
551.93;	0.0613
552.21;	0.0603
552.48;	0.0593
552.75;	0.0583
553.03;	0.0573
553.30;	0.0564
553.57;	0.0554
553.85;	0.0545
554.12;	0.0536
554.40;	0.0528
554.67;	0.0519
554.94;	0.0511
555.22;	0.0503
555.49;	0.0495
555.76;	0.0487
556.04;	0.0479
556.31;	0.0472
556.58;	0.0464
556.86;	0.0457
557.13;	0.0450
557.41;	0.0443
557.68;	0.0436
557.95;	0.0430
558.23;	0.0423
558.50;	0.0417
558.77;	0.0411
559.05;	0.0405
559.32;	0.0399
559.59;	0.0393
559.87;	0.0388
560.14;	0.0382
560.42;	0.0377
560.69;	0.0372
560.96;	0.0366
561.24;	0.0361
561.51;	0.0357
561.78;	0.0352
562.06;	0.0347
562.33;	0.0343
562.60;	0.0338
562.88;	0.0334
563.15;	0.0330
563.43;	0.0326
563.70;	0.0322
563.97;	0.0318
564.25;	0.0314
564.52;	0.0311
564.79;	0.0307
565.07;	0.0303
565.34;	0.0300
565.61;	0.0297
565.89;	0.0294
566.16;	0.0290
566.44;	0.0287
566.71;	0.0285
566.98;	0.0282
567.26;	0.0279
567.53;	0.0276
567.80;	0.0274
568.08;	0.0271
568.35;	0.0269
568.62;	0.0266
568.90;	0.0264
569.17;	0.0262
569.45;	0.0260
569.72;	0.0258
569.99;	0.0256
570.27;	0.0254
570.54;	0.0252
570.81;	0.0250
571.09;	0.0248
571.36;	0.0246
571.63;	0.0245
571.91;	0.0243
572.18;	0.0242
572.46;	0.0240
572.73;	0.0239
573.00;	0.0238
573.28;	0.0236
573.55;	0.0235
573.82;	0.0234
574.10;	0.0233
574.37;	0.0232
574.64;	0.0231
574.92;	0.0230
575.19;	0.0229
575.47;	0.0228
575.74;	0.0227
576.01;	0.0226
576.29;	0.0226
576.56;	0.0225
576.83;	0.0224
577.11;	0.0224
577.38;	0.0223
577.65;	0.0223
577.93;	0.0222
578.20;	0.0222
578.48;	0.0221
578.75;	0.0221
579.02;	0.0221
579.30;	0.0220
579.57;	0.0220
579.84;	0.0220
580.12;	0.0220
580.39;	0.0220
580.66;	0.0219
580.94;	0.0219
581.21;	0.0219
581.49;	0.0219
581.76;	0.0219
582.03;	0.0219
582.31;	0.0219
582.58;	0.0219
582.85;	0.0220
583.13;	0.0220
583.40;	0.0220
583.67;	0.0220
583.95;	0.0220
584.22;	0.0221
584.50;	0.0221
584.77;	0.0221
585.04;	0.0221
585.32;	0.0222
585.59;	0.0222
585.86;	0.0223
586.14;	0.0223
586.41;	0.0223
586.68;	0.0224
586.96;	0.0224
587.23;	0.0225
587.50;	0.0225
587.78;	0.0226
588.05;	0.0226
588.33;	0.0227
588.60;	0.0228
588.87;	0.0228
589.15;	0.0229
589.42;	0.0230
589.69;	0.0230
589.97;	0.0231
590.24;	0.0232
590.51;	0.0232
590.79;	0.0233
591.06;	0.0234
591.34;	0.0235
591.61;	0.0235
591.88;	0.0236
592.16;	0.0237
592.43;	0.0238
592.70;	0.0238
592.98;	0.0239
593.25;	0.0240
593.52;	0.0241
593.80;	0.0242
594.07;	0.0243
594.35;	0.0244
594.62;	0.0245
594.89;	0.0246
595.17;	0.0246
595.44;	0.0247
595.71;	0.0248
595.99;	0.0249
596.26;	0.0250
596.53;	0.0251
596.81;	0.0252
597.08;	0.0253
597.36;	0.0254
597.63;	0.0255
597.90;	0.0256
598.18;	0.0257
598.45;	0.0258
598.72;	0.0259
599.00;	0.0261
599.27;	0.0262
599.54;	0.0263
599.82;	0.0264
600.09;	0.0265
600.37;	0.0266
600.64;	0.0267
600.91;	0.0268
601.19;	0.0269
601.46;	0.0270
601.73;	0.0272
602.01;	0.0273
602.28;	0.0274
602.55;	0.0275
602.83;	0.0276
603.10;	0.0277
603.38;	0.0278
603.65;	0.0280
603.92;	0.0281
604.20;	0.0282
604.47;	0.0283
604.74;	0.0284
605.02;	0.0286
605.29;	0.0287
605.56;	0.0288
605.84;	0.0289
606.11;	0.0290
606.39;	0.0292
606.66;	0.0293
606.93;	0.0294
607.21;	0.0295
607.48;	0.0296
607.75;	0.0298
608.03;	0.0299
608.30;	0.0300
608.57;	0.0301
608.85;	0.0303
609.12;	0.0304
609.40;	0.0305
609.67;	0.0306
609.94;	0.0308
610.22;	0.0309
610.49;	0.0310
610.76;	0.0312
611.04;	0.0313
611.31;	0.0314
611.58;	0.0315
611.86;	0.0317
612.13;	0.0318
612.41;	0.0319
612.68;	0.0320
612.95;	0.0322
613.23;	0.0323
613.50;	0.0324
613.77;	0.0326
614.05;	0.0327
614.32;	0.0328
614.59;	0.0329
614.87;	0.0331
615.14;	0.0332
615.42;	0.0333
615.69;	0.0335
615.96;	0.0336
616.24;	0.0337
616.51;	0.0339
616.78;	0.0340
617.06;	0.0341
617.33;	0.0342
617.60;	0.0344
617.88;	0.0345
618.15;	0.0346
618.43;	0.0348
618.70;	0.0349
618.97;	0.0350
619.25;	0.0351
619.52;	0.0353
619.79;	0.0354
620.07;	0.0355
620.34;	0.0357
620.61;	0.0358
620.89;	0.0359
621.16;	0.0361
621.44;	0.0362
621.71;	0.0363
621.98;	0.0364
622.26;	0.0366
622.53;	0.0367
622.80;	0.0368
623.08;	0.0370
623.35;	0.0371
623.62;	0.0372
623.90;	0.0373
624.17;	0.0375
624.45;	0.0376
624.72;	0.0377
624.99;	0.0379
625.27;	0.0380
625.54;	0.0381
625.81;	0.0382
626.09;	0.0384
626.36;	0.0385
626.63;	0.0386
626.91;	0.0388
627.18;	0.0389
627.46;	0.0390
627.73;	0.0391
628.00;	0.0393
628.28;	0.0394
628.55;	0.0395
628.82;	0.0396
629.10;	0.0398
629.37;	0.0399
629.64;	0.0400
629.92;	0.0401
630.19;	0.0403
630.47;	0.0404
630.74;	0.0405
631.01;	0.0406
631.29;	0.0408
631.56;	0.0409
631.83;	0.0410
632.11;	0.0411
632.38;	0.0412
632.65;	0.0414
632.93;	0.0415
633.20;	0.0416
633.48;	0.0417
633.75;	0.0418
634.02;	0.0420
634.30;	0.0421
634.57;	0.0422
634.84;	0.0423
635.12;	0.0424
635.39;	0.0426
635.66;	0.0427
635.94;	0.0428
636.21;	0.0429
636.49;	0.0430
636.76;	0.0431
637.03;	0.0433
637.31;	0.0434
637.58;	0.0435
637.85;	0.0436
638.13;	0.0437
638.40;	0.0438
638.67;	0.0440
638.95;	0.0441
639.22;	0.0442
639.50;	0.0443
639.77;	0.0444
640.04;	0.0445
640.32;	0.0446
640.59;	0.0447
640.86;	0.0448
641.14;	0.0450
641.41;	0.0451
641.68;	0.0452
641.96;	0.0453
642.23;	0.0454
642.51;	0.0455
642.78;	0.0456
643.05;	0.0457
643.33;	0.0458
643.60;	0.0459
643.87;	0.0460
644.15;	0.0461
644.42;	0.0462
644.69;	0.0463
644.97;	0.0464
645.24;	0.0465
645.52;	0.0466
645.79;	0.0467
646.06;	0.0468
646.34;	0.0469
646.61;	0.0470
646.88;	0.0471
647.16;	0.0472
647.43;	0.0473
647.70;	0.0474
647.98;	0.0475
648.25;	0.0476
648.53;	0.0477
648.80;	0.0478
649.07;	0.0479
649.35;	0.0480
649.62;	0.0481
649.89;	0.0482
650.17;	0.0483
650.44;	0.0484
650.71;	0.0484
650.99;	0.0485
651.26;	0.0486
651.54;	0.0487
651.81;	0.0488
652.08;	0.0489
652.36;	0.0490
652.63;	0.0491
652.90;	0.0491
653.18;	0.0492
653.45;	0.0493
653.72;	0.0494
654.00;	0.0495
654.27;	0.0495
654.55;	0.0496
654.82;	0.0497
655.09;	0.0498
655.37;	0.0499
655.64;	0.0499
655.91;	0.0500
656.19;	0.0501
656.46;	0.0502
656.73;	0.0502
657.01;	0.0503
657.28;	0.0504
657.56;	0.0505
657.83;	0.0505
658.10;	0.0506
658.38;	0.0507
658.65;	0.0507
658.92;	0.0508
659.20;	0.0509
659.47;	0.0510
659.74;	0.0510
660.02;	0.0511
660.29;	0.0511
660.57;	0.0512
660.84;	0.0513
661.11;	0.0513
661.39;	0.0514
661.66;	0.0515
661.93;	0.0515
662.21;	0.0516
662.48;	0.0516
662.75;	0.0517
663.03;	0.0518
663.30;	0.0518
663.58;	0.0519
663.85;	0.0519
664.12;	0.0520
664.40;	0.0520
664.67;	0.0521
664.94;	0.0521
665.22;	0.0522
665.49;	0.0522
665.76;	0.0523
666.04;	0.0523
666.31;	0.0524
666.59;	0.0524
666.86;	0.0525
667.13;	0.0525
667.41;	0.0526
667.68;	0.0526
667.95;	0.0526
668.23;	0.0527
668.50;	0.0527
668.77;	0.0528
669.05;	0.0528
669.32;	0.0528
669.60;	0.0529
669.87;	0.0529
670.14;	0.0530
670.42;	0.0530
670.69;	0.0530
670.96;	0.0531
671.24;	0.0531
671.51;	0.0531
671.78;	0.0531
672.06;	0.0532
672.33;	0.0532
672.61;	0.0532
672.88;	0.0533
673.15;	0.0533
673.43;	0.0533
673.70;	0.0533
673.97;	0.0534
674.25;	0.0534
674.52;	0.0534
674.79;	0.0534
675.07;	0.0534
675.34;	0.0535
675.62;	0.0535
675.89;	0.0535
676.16;	0.0535
676.44;	0.0535
676.71;	0.0535
676.98;	0.0536
677.26;	0.0536
677.53;	0.0536
677.80;	0.0536
678.08;	0.0536
678.35;	0.0536
678.63;	0.0536
678.90;	0.0536
679.17;	0.0536
679.45;	0.0536
679.72;	0.0536
679.99;	0.0536
680.27;	0.0536
680.54;	0.0537
680.81;	0.0537
681.09;	0.0537
681.36;	0.0537
681.64;	0.0536
681.91;	0.0536
682.18;	0.0536
682.46;	0.0536
682.73;	0.0536
683.00;	0.0536
683.28;	0.0536
683.55;	0.0536
683.82;	0.0536
684.10;	0.0536
684.37;	0.0536
684.65;	0.0536
684.92;	0.0536
685.19;	0.0535
685.47;	0.0535
685.74;	0.0535
686.01;	0.0535
686.29;	0.0535
686.56;	0.0535
686.83;	0.0534
687.11;	0.0534
687.38;	0.0534
687.66;	0.0534
687.93;	0.0534
688.20;	0.0533
688.48;	0.0533
688.75;	0.0533
689.02;	0.0533
689.30;	0.0532
689.57;	0.0532
689.84;	0.0532
690.12;	0.0532
690.39;	0.0531
690.67;	0.0531
690.94;	0.0531
691.21;	0.0530
691.49;	0.0530
691.76;	0.0530
692.03;	0.0529
692.31;	0.0529
692.58;	0.0529
692.85;	0.0528
693.13;	0.0528
693.40;	0.0527
693.68;	0.0527
693.95;	0.0527
694.22;	0.0526
694.50;	0.0526
694.77;	0.0525
695.04;	0.0525
695.32;	0.0524
695.59;	0.0524
695.86;	0.0523
696.14;	0.0523
696.41;	0.0523
696.69;	0.0522
696.96;	0.0522
697.23;	0.0521
697.51;	0.0520
697.78;	0.0520
698.05;	0.0519
698.33;	0.0519
698.60;	0.0518
698.87;	0.0518
699.15;	0.0517
699.42;	0.0517
699.70;	0.0516
699.97;	0.0515
700.24;	0.0515
700.52;	0.0514
700.79;	0.0514
701.06;	0.0513
701.34;	0.0512
701.61;	0.0512
701.88;	0.0511
702.16;	0.0510
702.43;	0.0510
702.71;	0.0509
702.98;	0.0508
703.25;	0.0508
703.53;	0.0507
703.80;	0.0506
704.07;	0.0506
704.35;	0.0505
704.62;	0.0504
704.89;	0.0503
705.17;	0.0503
705.44;	0.0502
705.72;	0.0501
705.99;	0.0500
706.26;	0.0500
706.54;	0.0499
706.81;	0.0498
707.08;	0.0497
707.36;	0.0497
707.63;	0.0496
707.90;	0.0495
708.18;	0.0494
708.45;	0.0493
708.73;	0.0492
709.00;	0.0492
709.27;	0.0491
709.55;	0.0490
709.82;	0.0489
710.09;	0.0488
710.37;	0.0487
710.64;	0.0486
710.91;	0.0486
711.19;	0.0485
711.46;	0.0484
711.74;	0.0483
712.01;	0.0482
712.28;	0.0481
712.56;	0.0480
712.83;	0.0479
713.10;	0.0478
713.38;	0.0477
713.65;	0.0476
713.92;	0.0475
714.20;	0.0475
714.47;	0.0474
714.75;	0.0473
715.02;	0.0472
715.29;	0.0471
715.57;	0.0470
715.84;	0.0469
716.11;	0.0468
716.39;	0.0467
716.66;	0.0466
716.93;	0.0465
717.21;	0.0464
717.48;	0.0463
717.76;	0.0462
718.03;	0.0461
718.30;	0.0459
718.58;	0.0458
718.85;	0.0457
719.12;	0.0456
719.40;	0.0455
719.67;	0.0454
719.94;	0.0453
720.22;	0.0452
720.49;	0.0451
720.77;	0.0450
721.04;	0.0449
721.31;	0.0448
721.59;	0.0447
721.86;	0.0445
722.13;	0.0444
722.41;	0.0443
722.68;	0.0442
722.95;	0.0441
723.23;	0.0440
723.50;	0.0439
723.78;	0.0438
724.05;	0.0436
724.32;	0.0435
724.60;	0.0434
724.87;	0.0433
725.14;	0.0432
725.42;	0.0431
725.69;	0.0430
725.96;	0.0428
726.24;	0.0427
726.51;	0.0426
726.79;	0.0425
727.06;	0.0424
727.33;	0.0422
727.61;	0.0421
727.88;	0.0420
728.15;	0.0419
728.43;	0.0418
728.70;	0.0416
728.97;	0.0415
729.25;	0.0414
729.52;	0.0413
729.80;	0.0412
730.07;	0.0410
730.34;	0.0409
730.62;	0.0408
730.89;	0.0407
731.16;	0.0405
731.44;	0.0404
731.71;	0.0403
731.98;	0.0402
732.26;	0.0400
732.53;	0.0399
732.81;	0.0398
733.08;	0.0397
733.35;	0.0395
733.63;	0.0394
733.90;	0.0393
734.17;	0.0392
734.45;	0.0390
734.72;	0.0389
734.99;	0.0388
735.27;	0.0386
735.54;	0.0385
735.82;	0.0384
736.09;	0.0383
736.36;	0.0381
736.64;	0.0380
736.91;	0.0379
737.18;	0.0377
737.46;	0.0376
737.73;	0.0375
738.00;	0.0374
738.28;	0.0372
738.55;	0.0371
738.83;	0.0370
739.10;	0.0368
739.37;	0.0367
739.65;	0.0366
739.92;	0.0364
740.19;	0.0363
740.47;	0.0362
740.74;	0.0361
741.01;	0.0359
741.29;	0.0358
741.56;	0.0357
741.83;	0.0355
742.11;	0.0354
742.38;	0.0353
742.66;	0.0351
742.93;	0.0350
743.20;	0.0349
743.48;	0.0347
743.75;	0.0346
744.02;	0.0345
744.30;	0.0343
744.57;	0.0342
744.84;	0.0341
745.12;	0.0339
745.39;	0.0338
745.67;	0.0337
745.94;	0.0335
746.21;	0.0334
746.49;	0.0333
746.76;	0.0331
747.03;	0.0330
747.31;	0.0329
747.58;	0.0327
747.85;	0.0326
748.13;	0.0325
748.40;	0.0323
748.68;	0.0322
748.95;	0.0321
749.22;	0.0319
749.50;	0.0318
749.77;	0.0317
750.04;	0.0315
750.32;	0.0314
750.59;	0.0313
750.86;	0.0312
751.14;	0.0310
751.41;	0.0309
751.69;	0.0308
751.96;	0.0306
752.23;	0.0305
752.51;	0.0304
752.78;	0.0302
753.05;	0.0301
753.33;	0.0300
753.60;	0.0298
753.87;	0.0297
754.15;	0.0296
754.42;	0.0294
754.70;	0.0293
754.97;	0.0292
755.24;	0.0290
755.52;	0.0289
755.79;	0.0288
756.06;	0.0286
756.34;	0.0285
756.61;	0.0284
756.88;	0.0283
757.16;	0.0281
757.43;	0.0280
757.71;	0.0279
757.98;	0.0277
758.25;	0.0276
758.53;	0.0275
758.80;	0.0273
759.07;	0.0272
759.35;	0.0271
759.62;	0.0270
759.89;	0.0268
760.17;	0.0267
760.44;	0.0266
760.72;	0.0264
760.99;	0.0263
761.26;	0.0262
761.54;	0.0261
761.81;	0.0259
762.08;	0.0258
762.36;	0.0257
762.63;	0.0255
762.90;	0.0254
763.18;	0.0253
763.45;	0.0252
763.73;	0.0250
764.00;	0.0249
764.27;	0.0248
764.55;	0.0247
764.82;	0.0245
765.09;	0.0244
765.37;	0.0243
765.64;	0.0242
765.91;	0.0240
766.19;	0.0239
766.46;	0.0238
766.74;	0.0237
767.01;	0.0235
767.28;	0.0234
767.56;	0.0233
767.83;	0.0232
768.10;	0.0230
768.38;	0.0229
768.65;	0.0228
768.92;	0.0227
769.20;	0.0226
769.47;	0.0224
769.75;	0.0223
770.02;	0.0222
770.29;	0.0221
770.57;	0.0220
770.84;	0.0218
771.11;	0.0217
771.39;	0.0216
771.66;	0.0215
771.93;	0.0214
772.21;	0.0212
772.48;	0.0211
772.76;	0.0210
773.03;	0.0209
773.30;	0.0208
773.58;	0.0207
773.85;	0.0205
774.12;	0.0204
774.40;	0.0203
774.67;	0.0202
774.94;	0.0201
775.22;	0.0200
775.49;	0.0198
775.77;	0.0197
776.04;	0.0196
776.31;	0.0195
776.59;	0.0194
776.86;	0.0193
777.13;	0.0192
777.41;	0.0191
777.68;	0.0189
777.95;	0.0188
778.23;	0.0187
778.50;	0.0186
778.78;	0.0185
779.05;	0.0184
779.32;	0.0183
779.60;	0.0182
779.87;	0.0181
780.14;	0.0180
780.42;	0.0178
780.69;	0.0177
780.96;	0.0176
781.24;	0.0175
781.51;	0.0174
781.79;	0.0173
782.06;	0.0172
782.33;	0.0171
782.61;	0.0170
782.88;	0.0169
783.15;	0.0168
783.43;	0.0167
783.70;	0.0166
783.97;	0.0165
784.25;	0.0164
784.52;	0.0163
784.80;	0.0162
785.07;	0.0161
785.34;	0.0160
785.62;	0.0159
785.89;	0.0158
786.16;	0.0157
786.44;	0.0156
786.71;	0.0155
786.98;	0.0154
787.26;	0.0153
787.53;	0.0152
787.81;	0.0151
788.08;	0.0150
788.35;	0.0149
788.63;	0.0148
788.90;	0.0147
789.17;	0.0146
789.45;	0.0145
789.72;	0.0144
789.99;	0.0143
790.27;	0.0142
790.54;	0.0141
790.82;	0.0140
791.09;	0.0139
791.36;	0.0138
791.64;	0.0137
791.91;	0.0136
792.18;	0.0135
792.46;	0.0134
792.73;	0.0134
793.00;	0.0133
793.28;	0.0132
793.55;	0.0131
793.83;	0.0130
794.10;	0.0129
794.37;	0.0128
794.65;	0.0127
794.92;	0.0126
795.19;	0.0126
795.47;	0.0125
795.74;	0.0124
796.01;	0.0123
796.29;	0.0122
796.56;	0.0121
796.84;	0.0120
797.11;	0.0120
797.38;	0.0119
797.66;	0.0118
797.93;	0.0117
798.20;	0.0116
798.48;	0.0115
798.75;	0.0115
799.02;	0.0114
799.30;	0.0113
799.57;	0.0112
799.85;	0.0111
800.12;	0.0110
800.39;	0.0110
800.67;	0.0109
800.94;	0.0108
801.21;	0.0107
801.49;	0.0106
801.76;	0.0106
802.03;	0.0105
802.31;	0.0104
802.58;	0.0103
802.86;	0.0103
803.13;	0.0102
803.40;	0.0101
803.68;	0.0100
803.95;	0.0100
804.22;	0.0099
804.50;	0.0098
804.77;	0.0097
805.04;	0.0097
805.32;	0.0096
805.59;	0.0095
805.87;	0.0094
806.14;	0.0094
806.41;	0.0093
806.69;	0.0092
806.96;	0.0092
807.23;	0.0091
807.51;	0.0090
807.78;	0.0090
808.05;	0.0089
808.33;	0.0088
808.60;	0.0087
808.88;	0.0087
809.15;	0.0086
809.42;	0.0085
809.70;	0.0085
809.97;	0.0084
810.24;	0.0083
810.52;	0.0083
810.79;	0.0082
811.06;	0.0082
811.34;	0.0081
811.61;	0.0080
811.89;	0.0080
812.16;	0.0079
812.43;	0.0078
812.71;	0.0078
812.98;	0.0077
813.25;	0.0076
813.53;	0.0076
813.80;	0.0075
814.07;	0.0075
814.35;	0.0074
814.62;	0.0073
814.90;	0.0073
815.17;	0.0072
815.44;	0.0072
815.72;	0.0071
815.99;	0.0070
816.26;	0.0070
816.54;	0.0069
816.81;	0.0069
817.08;	0.0068
817.36;	0.0068
817.63;	0.0067
817.91;	0.0067
818.18;	0.0066
818.45;	0.0065
818.73;	0.0065
819.00;	0.0064
