wavelength, nm;	absorption
378.00;	0.7221
378.25;	0.7302
378.51;	0.7384
378.76;	0.7467
379.01;	0.7550
379.27;	0.7634
379.52;	0.7718
379.77;	0.7803
380.03;	0.7889
380.28;	0.7975
380.53;	0.8061
380.79;	0.8149
381.04;	0.8236
381.29;	0.8325
381.55;	0.8414
381.80;	0.8503
382.05;	0.8593
382.31;	0.8684
382.56;	0.8775
382.81;	0.8867
383.07;	0.8960
383.32;	0.9052
383.57;	0.9146
383.83;	0.9240
384.08;	0.9335
384.33;	0.9430
384.59;	0.9525
384.84;	0.9622
385.10;	0.9718
385.35;	0.9816
385.60;	0.9914
385.86;	1.0012
386.11;	1.0111
386.36;	1.0210
386.62;	1.0310
386.87;	1.0411
387.12;	1.0512
387.38;	1.0613
387.63;	1.0715
387.88;	1.0818
388.14;	1.0921
388.39;	1.1024
388.64;	1.1128
388.90;	1.1233
389.15;	1.1337
389.40;	1.1443
389.66;	1.1549
389.91;	1.1655
390.16;	1.1762
390.42;	1.1869
390.67;	1.1977
390.92;	1.2085
391.18;	1.2193
391.43;	1.2302
391.68;	1.2412
391.94;	1.2521
392.19;	1.2632
392.44;	1.2742
392.70;	1.2853
392.95;	1.2965
393.20;	1.3076
393.46;	1.3189
393.71;	1.3301
393.96;	1.3414
394.22;	1.3527
394.47;	1.3641
394.72;	1.3755
394.98;	1.3869
395.23;	1.3984
395.48;	1.4099
395.74;	1.4214
395.99;	1.4329
396.24;	1.4445
396.50;	1.4561
396.75;	1.4678
397.00;	1.4795
397.26;	1.4911
397.51;	1.5029
397.76;	1.5146
398.02;	1.5264
398.27;	1.5382
398.53;	1.5500
398.78;	1.5618
399.03;	1.5737
399.29;	1.5856
399.54;	1.5974
399.79;	1.6094
400.05;	1.6213
400.30;	1.6332
400.55;	1.6452
400.81;	1.6572
401.06;	1.6692
401.31;	1.6812
401.57;	1.6932
401.82;	1.7052
402.07;	1.7172
402.33;	1.7292
402.58;	1.7413
402.83;	1.7533
403.09;	1.7654
403.34;	1.7774
403.59;	1.7895
403.85;	1.8016
404.10;	1.8136
404.35;	1.8257
404.61;	1.8378
404.86;	1.8498
405.11;	1.8619
405.37;	1.8739
405.62;	1.8860
405.87;	1.8980
406.13;	1.9100
406.38;	1.9220
406.63;	1.9341
406.89;	1.9461
407.14;	1.9580
407.39;	1.9700
407.65;	1.9820
407.90;	1.9939
408.15;	2.0058
408.41;	2.0177
408.66;	2.0296
408.91;	2.0415
409.17;	2.0533
409.42;	2.0651
409.67;	2.0769
409.93;	2.0887
410.18;	2.1005
410.43;	2.1122
410.69;	2.1239
410.94;	2.1355
411.19;	2.1471
411.45;	2.1587
411.70;	2.1703
411.96;	2.1818
412.21;	2.1933
412.46;	2.2047
412.72;	2.2161
412.97;	2.2275
413.22;	2.2388
413.48;	2.2501
413.73;	2.2614
413.98;	2.2726
414.24;	2.2837
414.49;	2.2948
414.74;	2.3059
415.00;	2.3169
415.25;	2.3278
415.50;	2.3387
415.76;	2.3496
416.01;	2.3604
416.26;	2.3711
416.52;	2.3818
416.77;	2.3924
417.02;	2.4030
417.28;	2.4135
417.53;	2.4239
417.78;	2.4343
418.04;	2.4446
418.29;	2.4549
418.54;	2.4651
418.80;	2.4752
419.05;	2.4852
419.30;	2.4952
419.56;	2.5051
419.81;	2.5149
420.06;	2.5247
420.32;	2.5344
420.57;	2.5440
420.82;	2.5535
421.08;	2.5630
421.33;	2.5723
421.58;	2.5816
421.84;	2.5908
422.09;	2.6000
422.34;	2.6090
422.60;	2.6180
422.85;	2.6268
423.10;	2.6356
423.36;	2.6443
423.61;	2.6529
423.86;	2.6614
424.12;	2.6699
424.37;	2.6782
424.62;	2.6865
424.88;	2.6946
425.13;	2.7026
425.39;	2.7106
425.64;	2.7185
425.89;	2.7262
426.15;	2.7339
426.40;	2.7414
426.65;	2.7489
426.91;	2.7562
427.16;	2.7635
427.41;	2.7706
427.67;	2.7777
427.92;	2.7846
428.17;	2.7915
428.43;	2.7982
428.68;	2.8048
428.93;	2.8113
429.19;	2.8177
429.44;	2.8240
429.69;	2.8301
429.95;	2.8362
430.20;	2.8422
430.45;	2.8480
430.71;	2.8537
430.96;	2.8593
431.21;	2.8648
431.47;	2.8702
431.72;	2.8754
431.97;	2.8805
432.23;	2.8856
432.48;	2.8904
432.73;	2.8952
432.99;	2.8999
433.24;	2.9044
433.49;	2.9088
433.75;	2.9131
434.00;	2.9173
434.25;	2.9213
434.51;	2.9252
434.76;	2.9290
435.01;	2.9327
435.27;	2.9362
435.52;	2.9396
435.77;	2.9429
436.03;	2.9460
436.28;	2.9491
436.53;	2.9520
436.79;	2.9547
437.04;	2.9574
437.29;	2.9599
437.55;	2.9623
437.80;	2.9645
438.05;	2.9667
438.31;	2.9687
438.56;	2.9705
438.82;	2.9723
439.07;	2.9739
439.32;	2.9753
439.58;	2.9767
439.83;	2.9779
440.08;	2.9790
440.34;	2.9799
440.59;	2.9807
440.84;	2.9814
441.10;	2.9819
441.35;	2.9824
441.60;	2.9826
441.86;	2.9828
442.11;	2.9828
442.36;	2.9827
442.62;	2.9824
442.87;	2.9821
443.12;	2.9815
443.38;	2.9809
443.63;	2.9801
443.88;	2.9792
444.14;	2.9782
444.39;	2.9770
444.64;	2.9757
444.90;	2.9743
445.15;	2.9727
445.40;	2.9710
445.66;	2.9692
445.91;	2.9672
446.16;	2.9651
446.42;	2.9629
446.67;	2.9605
446.92;	2.9580
447.18;	2.9554
447.43;	2.9527
447.68;	2.9498
447.94;	2.9468
448.19;	2.9437
448.44;	2.9405
448.70;	2.9371
448.95;	2.9336
449.20;	2.9300
449.46;	2.9262
449.71;	2.9223
449.96;	2.9183
450.22;	2.9142
450.47;	2.9099
450.72;	2.9056
450.98;	2.9011
451.23;	2.8964
451.48;	2.8917
451.74;	2.8868
451.99;	2.8819
452.25;	2.8768
452.50;	2.8716
452.75;	2.8662
453.01;	2.8608
453.26;	2.8552
453.51;	2.8495
453.77;	2.8437
454.02;	2.8378
454.27;	2.8318
454.53;	2.8256
454.78;	2.8194
455.03;	2.8130
455.29;	2.8066
455.54;	2.8000
455.79;	2.7933
456.05;	2.7865
456.30;	2.7796
456.55;	2.7726
456.81;	2.7655
457.06;	2.7582
457.31;	2.7509
457.57;	2.7435
457.82;	2.7360
458.07;	2.7284
458.33;	2.7206
458.58;	2.7128
458.83;	2.7049
459.09;	2.6969
459.34;	2.6888
459.59;	2.6805
459.85;	2.6722
460.10;	2.6639
460.35;	2.6554
460.61;	2.6468
460.86;	2.6381
461.11;	2.6294
461.37;	2.6205
461.62;	2.6116
461.87;	2.6026
462.13;	2.5935
462.38;	2.5843
462.63;	2.5751
462.89;	2.5657
463.14;	2.5563
463.39;	2.5468
463.65;	2.5373
463.90;	2.5276
464.15;	2.5179
464.41;	2.5081
464.66;	2.4982
464.91;	2.4883
465.17;	2.4783
465.42;	2.4682
465.68;	2.4580
465.93;	2.4478
466.18;	2.4375
466.44;	2.4272
466.69;	2.4168
466.94;	2.4063
467.20;	2.3958
467.45;	2.3852
467.70;	2.3746
467.96;	2.3639
468.21;	2.3531
468.46;	2.3423
468.72;	2.3314
468.97;	2.3205
469.22;	2.3095
469.48;	2.2985
469.73;	2.2874
469.98;	2.2763
470.24;	2.2652
470.49;	2.2540
470.74;	2.2427
471.00;	2.2314
471.25;	2.2201
471.50;	2.2087
471.76;	2.1973
472.01;	2.1859
472.26;	2.1744
472.52;	2.1628
472.77;	2.1513
473.02;	2.1397
473.28;	2.1281
473.53;	2.1164
473.78;	2.1048
474.04;	2.0931
474.29;	2.0813
474.54;	2.0696
474.80;	2.0578
475.05;	2.0460
475.30;	2.0342
475.56;	2.0223
475.81;	2.0104
476.06;	1.9986
476.32;	1.9867
476.57;	1.9747
476.82;	1.9628
477.08;	1.9509
477.33;	1.9389
477.58;	1.9269
477.84;	1.9150
478.09;	1.9030
478.34;	1.8910
478.60;	1.8790
478.85;	1.8670
479.11;	1.8550
479.36;	1.8429
479.61;	1.8309
479.87;	1.8189
480.12;	1.8069
480.37;	1.7949
480.63;	1.7828
480.88;	1.7708
481.13;	1.7588
481.39;	1.7468
481.64;	1.7348
481.89;	1.7228
482.15;	1.7108
482.40;	1.6989
482.65;	1.6869
482.91;	1.6750
483.16;	1.6630
483.41;	1.6511
483.67;	1.6392
483.92;	1.6273
484.17;	1.6154
484.43;	1.6035
484.68;	1.5917
484.93;	1.5799
485.19;	1.5681
485.44;	1.5563
485.69;	1.5445
485.95;	1.5328
486.20;	1.5210
486.45;	1.5094
486.71;	1.4977
486.96;	1.4860
487.21;	1.4744
487.47;	1.4628
487.72;	1.4513
487.97;	1.4397
488.23;	1.4282
488.48;	1.4168
488.73;	1.4053
488.99;	1.3939
489.24;	1.3826
489.49;	1.3712
489.75;	1.3599
490.00;	1.3486
490.25;	1.3374
490.51;	1.3262
490.76;	1.3151
491.01;	1.3039
491.27;	1.2929
491.52;	1.2818
491.77;	1.2708
492.03;	1.2599
492.28;	1.2489
492.54;	1.2381
492.79;	1.2272
493.04;	1.2164
493.30;	1.2057
493.55;	1.1950
493.80;	1.1843
494.06;	1.1737
494.31;	1.1632
494.56;	1.1526
494.82;	1.1422
495.07;	1.1318
495.32;	1.1214
495.58;	1.1111
495.83;	1.1008
496.08;	1.0905
496.34;	1.0804
496.59;	1.0702
496.84;	1.0602
497.10;	1.0501
497.35;	1.0402
497.60;	1.0302
497.86;	1.0204
498.11;	1.0106
498.36;	1.0008
498.62;	0.9911
498.87;	0.9814
499.12;	0.9718
499.38;	0.9623
499.63;	0.9528
499.88;	0.9434
500.14;	0.9340
500.39;	0.9247
500.64;	0.9154
500.90;	0.9062
501.15;	0.8970
501.40;	0.8879
501.66;	0.8789
501.91;	0.8699
502.16;	0.8610
502.42;	0.8521
502.67;	0.8433
502.92;	0.8346
503.18;	0.8259
503.43;	0.8173
503.68;	0.8087
503.94;	0.8002
504.19;	0.7917
504.44;	0.7833
504.70;	0.7750
504.95;	0.7667
505.20;	0.7585
505.46;	0.7503
505.71;	0.7422
505.97;	0.7342
506.22;	0.7262
506.47;	0.7183
506.73;	0.7104
506.98;	0.7026
507.23;	0.6949
507.49;	0.6872
507.74;	0.6796
507.99;	0.6720
508.25;	0.6645
508.50;	0.6571
508.75;	0.6497
509.01;	0.6424
509.26;	0.6351
509.51;	0.6279
509.77;	0.6208
510.02;	0.6137
510.27;	0.6067
510.53;	0.5997
510.78;	0.5928
511.03;	0.5860
511.29;	0.5792
511.54;	0.5725
511.79;	0.5658
512.05;	0.5592
512.30;	0.5527
512.55;	0.5462
512.81;	0.5398
513.06;	0.5334
513.31;	0.5271
513.57;	0.5209
513.82;	0.5147
514.07;	0.5086
514.33;	0.5025
514.58;	0.4965
514.83;	0.4905
515.09;	0.4846
515.34;	0.4788
515.59;	0.4730
515.85;	0.4673
516.10;	0.4616
516.35;	0.4560
516.61;	0.4504
516.86;	0.4449
517.11;	0.4395
517.37;	0.4341
517.62;	0.4287
517.87;	0.4235
518.13;	0.4182
518.38;	0.4131
518.63;	0.4080
518.89;	0.4029
519.14;	0.3979
519.40;	0.3929
519.65;	0.3880
519.90;	0.3832
520.16;	0.3784
520.41;	0.3737
520.66;	0.3690
520.92;	0.3644
521.17;	0.3598
521.42;	0.3552
521.68;	0.3508
521.93;	0.3463
522.18;	0.3420
522.44;	0.3376
522.69;	0.3334
522.94;	0.3291
523.20;	0.3250
523.45;	0.3208
523.70;	0.3168
523.96;	0.3127
524.21;	0.3088
524.46;	0.3048
524.72;	0.3010
524.97;	0.2971
525.22;	0.2933
525.48;	0.2896
525.73;	0.2859
525.98;	0.2823
526.24;	0.2787
526.49;	0.2751
526.74;	0.2716
527.00;	0.2681
527.25;	0.2647
527.50;	0.2614
527.76;	0.2580
528.01;	0.2547
528.26;	0.2515
528.52;	0.2483
528.77;	0.2452
529.02;	0.2420
529.28;	0.2390
529.53;	0.2359
529.78;	0.2330
530.04;	0.2300
530.29;	0.2271
530.54;	0.2243
530.80;	0.2214
531.05;	0.2187
531.30;	0.2159
531.56;	0.2132
531.81;	0.2105
532.06;	0.2079
532.32;	0.2053
532.57;	0.2028
532.83;	0.2003
533.08;	0.1978
533.33;	0.1954
533.59;	0.1930
533.84;	0.1906
534.09;	0.1883
534.35;	0.1860
534.60;	0.1837
534.85;	0.1815
535.11;	0.1793
535.36;	0.1772
535.61;	0.1751
535.87;	0.1730
536.12;	0.1710
536.37;	0.1689
536.63;	0.1670
536.88;	0.1650
537.13;	0.1631
537.39;	0.1612
537.64;	0.1594
537.89;	0.1575
538.15;	0.1558
538.40;	0.1540
538.65;	0.1523
538.91;	0.1506
539.16;	0.1489
539.41;	0.1473
539.67;	0.1457
539.92;	0.1441
540.17;	0.1425
540.43;	0.1410
540.68;	0.1395
540.93;	0.1381
541.19;	0.1366
541.44;	0.1352
541.69;	0.1338
541.95;	0.1325
542.20;	0.1312
542.45;	0.1299
542.71;	0.1286
542.96;	0.1273
543.21;	0.1261
543.47;	0.1249
543.72;	0.1237
543.97;	0.1226
544.23;	0.1214
544.48;	0.1203
544.73;	0.1193
544.99;	0.1182
545.24;	0.1172
545.49;	0.1162
545.75;	0.1152
546.00;	0.1142
546.26;	0.1133
546.51;	0.1124
546.76;	0.1115
547.02;	0.1106
547.27;	0.1097
547.52;	0.1089
547.78;	0.1081
548.03;	0.1073
548.28;	0.1065
548.54;	0.1058
548.79;	0.1050
549.04;	0.1043
549.30;	0.1036
549.55;	0.1029
549.80;	0.1023
550.06;	0.1017
550.31;	0.1010
550.56;	0.1004
550.82;	0.0999
551.07;	0.0993
551.32;	0.0987
551.58;	0.0982
551.83;	0.0977
552.08;	0.0972
552.34;	0.0967
552.59;	0.0963
552.84;	0.0958
553.10;	0.0954
553.35;	0.0950
553.60;	0.0946
553.86;	0.0942
554.11;	0.0938
554.36;	0.0935
554.62;	0.0931
554.87;	0.0928
555.12;	0.0925
555.38;	0.0922
555.63;	0.0919
555.88;	0.0917
556.14;	0.0914
556.39;	0.0912
556.64;	0.0910
556.90;	0.0908
557.15;	0.0906
557.40;	0.0904
557.66;	0.0902
557.91;	0.0901
558.16;	0.0899
558.42;	0.0898
558.67;	0.0897
558.92;	0.0896
559.18;	0.0895
559.43;	0.0894
559.69;	0.0893
559.94;	0.0892
560.19;	0.0892
560.45;	0.0892
560.70;	0.0891
560.95;	0.0891
561.21;	0.0891
561.46;	0.0891
561.71;	0.0891
561.97;	0.0892
562.22;	0.0892
562.47;	0.0892
562.73;	0.0893
562.98;	0.0894
563.23;	0.0894
563.49;	0.0895
563.74;	0.0896
563.99;	0.0897
564.25;	0.0898
564.50;	0.0900
564.75;	0.0901
565.01;	0.0902
565.26;	0.0904
565.51;	0.0906
565.77;	0.0907
566.02;	0.0909
566.27;	0.0911
566.53;	0.0913
566.78;	0.0915
567.03;	0.0917
567.29;	0.0919
567.54;	0.0921
567.79;	0.0924
568.05;	0.0926
568.30;	0.0928
568.55;	0.0931
568.81;	0.0934
569.06;	0.0936
569.31;	0.0939
569.57;	0.0942
569.82;	0.0945
570.07;	0.0948
570.33;	0.0951
570.58;	0.0954
570.83;	0.0957
571.09;	0.0960
571.34;	0.0964
571.59;	0.0967
571.85;	0.0970
572.10;	0.0974
572.35;	0.0977
572.61;	0.0981
572.86;	0.0985
573.12;	0.0988
573.37;	0.0992
573.62;	0.0996
573.88;	0.1000
574.13;	0.1004
574.38;	0.1008
574.64;	0.1012
574.89;	0.1016
575.14;	0.1020
575.40;	0.1025
575.65;	0.1029
575.90;	0.1033
576.16;	0.1038
576.41;	0.1042
576.66;	0.1047
576.92;	0.1051
577.17;	0.1056
577.42;	0.1060
577.68;	0.1065
577.93;	0.1070
578.18;	0.1075
578.44;	0.1079
578.69;	0.1084
578.94;	0.1089
579.20;	0.1094
579.45;	0.1099
579.70;	0.1104
579.96;	0.1109
580.21;	0.1114
580.46;	0.1119
580.72;	0.1125
580.97;	0.1130
581.22;	0.1135
581.48;	0.1141
581.73;	0.1146
581.98;	0.1151
582.24;	0.1157
582.49;	0.1162
582.74;	0.1168
583.00;	0.1173
583.25;	0.1179
583.50;	0.1184
583.76;	0.1190
584.01;	0.1196
584.26;	0.1202
584.52;	0.1207
584.77;	0.1213
585.02;	0.1219
585.28;	0.1225
585.53;	0.1231
585.78;	0.1237
586.04;	0.1243
586.29;	0.1248
586.55;	0.1255
586.80;	0.1261
587.05;	0.1267
587.31;	0.1273
587.56;	0.1279
587.81;	0.1285
588.07;	0.1291
588.32;	0.1297
588.57;	0.1304
588.83;	0.1310
589.08;	0.1316
589.33;	0.1323
589.59;	0.1329
589.84;	0.1335
590.09;	0.1342
590.35;	0.1348
590.60;	0.1355
590.85;	0.1361
591.11;	0.1368
591.36;	0.1374
591.61;	0.1381
591.87;	0.1387
592.12;	0.1394
592.37;	0.1400
592.63;	0.1407
592.88;	0.1414
593.13;	0.1420
593.39;	0.1427
593.64;	0.1434
593.89;	0.1441
594.15;	0.1447
594.40;	0.1454
594.65;	0.1461
594.91;	0.1468
595.16;	0.1475
595.41;	0.1482
595.67;	0.1489
595.92;	0.1495
596.17;	0.1502
596.43;	0.1509
596.68;	0.1516
596.93;	0.1523
597.19;	0.1530
597.44;	0.1537
597.69;	0.1544
597.95;	0.1551
598.20;	0.1558
598.45;	0.1566
598.71;	0.1573
598.96;	0.1580
599.22;	0.1587
599.47;	0.1594
599.72;	0.1601
599.98;	0.1608
600.23;	0.1616
600.48;	0.1623
600.74;	0.1630
600.99;	0.1637
601.24;	0.1644
601.50;	0.1652
601.75;	0.1659
602.00;	0.1666
602.26;	0.1674
602.51;	0.1681
602.76;	0.1688
603.02;	0.1696
603.27;	0.1703
603.52;	0.1710
603.78;	0.1718
604.03;	0.1725
604.28;	0.1732
604.54;	0.1740
604.79;	0.1747
605.04;	0.1755
605.30;	0.1762
605.55;	0.1770
605.80;	0.1777
606.06;	0.1784
606.31;	0.1792
606.56;	0.1799
606.82;	0.1807
607.07;	0.1814
607.32;	0.1822
607.58;	0.1829
607.83;	0.1837
608.08;	0.1844
608.34;	0.1852
608.59;	0.1859
608.84;	0.1867
609.10;	0.1874
609.35;	0.1882
609.60;	0.1890
609.86;	0.1897
610.11;	0.1905
610.36;	0.1912
610.62;	0.1920
610.87;	0.1927
611.12;	0.1935
611.38;	0.1943
611.63;	0.1950
611.88;	0.1958
612.14;	0.1965
612.39;	0.1973
612.65;	0.1981
612.90;	0.1988
613.15;	0.1996
613.41;	0.2003
613.66;	0.2011
613.91;	0.2019
614.17;	0.2026
614.42;	0.2034
614.67;	0.2041
614.93;	0.2049
615.18;	0.2057
615.43;	0.2064
615.69;	0.2072
615.94;	0.2079
616.19;	0.2087
616.45;	0.2095
616.70;	0.2102
616.95;	0.2110
617.21;	0.2117
617.46;	0.2125
617.71;	0.2133
617.97;	0.2140
618.22;	0.2148
618.47;	0.2155
618.73;	0.2163
618.98;	0.2171
619.23;	0.2178
619.49;	0.2186
619.74;	0.2193
619.99;	0.2201
620.25;	0.2208
620.50;	0.2216
620.75;	0.2224
621.01;	0.2231
621.26;	0.2239
621.51;	0.2246
621.77;	0.2254
622.02;	0.2261
622.27;	0.2269
622.53;	0.2276
622.78;	0.2284
623.03;	0.2291
623.29;	0.2299
623.54;	0.2306
623.79;	0.2314
624.05;	0.2321
624.30;	0.2329
624.55;	0.2336
624.81;	0.2343
625.06;	0.2351
625.31;	0.2358
625.57;	0.2366
625.82;	0.2373
626.08;	0.2380
626.33;	0.2388
626.58;	0.2395
626.84;	0.2402
627.09;	0.2410
627.34;	0.2417
627.60;	0.2424
627.85;	0.2432
628.10;	0.2439
628.36;	0.2446
628.61;	0.2454
628.86;	0.2461
629.12;	0.2468
629.37;	0.2475
629.62;	0.2482
629.88;	0.2490
630.13;	0.2497
630.38;	0.2504
630.64;	0.2511
630.89;	0.2518
631.14;	0.2525
631.40;	0.2532
631.65;	0.2539
631.90;	0.2547
632.16;	0.2554
632.41;	0.2561
632.66;	0.2568
632.92;	0.2575
633.17;	0.2582
633.42;	0.2589
633.68;	0.2595
633.93;	0.2602
634.18;	0.2609
634.44;	0.2616
634.69;	0.2623
634.94;	0.2630
635.20;	0.2637
635.45;	0.2644
635.70;	0.2650
635.96;	0.2657
636.21;	0.2664
636.46;	0.2671
636.72;	0.2677
636.97;	0.2684
637.22;	0.2691
637.48;	0.2697
637.73;	0.2704
637.98;	0.2710
638.24;	0.2717
638.49;	0.2724
638.74;	0.2730
639.00;	0.2737
639.25;	0.2743
639.51;	0.2749
639.76;	0.2756
640.01;	0.2762
640.27;	0.2769
640.52;	0.2775
640.77;	0.2781
641.03;	0.2788
641.28;	0.2794
641.53;	0.2800
641.79;	0.2806
642.04;	0.2813
642.29;	0.2819
642.55;	0.2825
642.80;	0.2831
643.05;	0.2837
643.31;	0.2843
643.56;	0.2849
643.81;	0.2855
644.07;	0.2861
644.32;	0.2867
644.57;	0.2873
644.83;	0.2879
645.08;	0.2885
645.33;	0.2891
645.59;	0.2896
645.84;	0.2902
646.09;	0.2908
646.35;	0.2914
646.60;	0.2919
646.85;	0.2925
647.11;	0.2931
647.36;	0.2936
647.61;	0.2942
647.87;	0.2947
648.12;	0.2953
648.37;	0.2958
648.63;	0.2964
648.88;	0.2969
649.13;	0.2974
649.39;	0.2980
649.64;	0.2985
649.89;	0.2990
650.15;	0.2996
650.40;	0.3001
650.65;	0.3006
650.91;	0.3011
651.16;	0.3016
651.41;	0.3021
651.67;	0.3026
651.92;	0.3031
652.17;	0.3036
652.43;	0.3041
652.68;	0.3046
652.94;	0.3051
653.19;	0.3056
653.44;	0.3061
653.70;	0.3065
653.95;	0.3070
654.20;	0.3075
654.46;	0.3079
654.71;	0.3084
654.96;	0.3088
655.22;	0.3093
655.47;	0.3097
655.72;	0.3102
655.98;	0.3106
656.23;	0.3111
656.48;	0.3115
656.74;	0.3119
656.99;	0.3124
657.24;	0.3128
657.50;	0.3132
657.75;	0.3136
658.00;	0.3140
658.26;	0.3144
658.51;	0.3148
658.76;	0.3152
659.02;	0.3156
659.27;	0.3160
659.52;	0.3164
659.78;	0.3168
660.03;	0.3171
660.28;	0.3175
660.54;	0.3179
660.79;	0.3183
661.04;	0.3186
661.30;	0.3190
661.55;	0.3193
661.80;	0.3197
662.06;	0.3200
662.31;	0.3204
662.56;	0.3207
662.82;	0.3210
663.07;	0.3214
663.32;	0.3217
663.58;	0.3220
663.83;	0.3223
664.08;	0.3226
664.34;	0.3229
664.59;	0.3232
664.84;	0.3235
665.10;	0.3238
665.35;	0.3241
665.60;	0.3244
665.86;	0.3247
666.11;	0.3249
666.37;	0.3252
666.62;	0.3255
666.87;	0.3257
667.13;	0.3260
667.38;	0.3263
667.63;	0.3265
667.89;	0.3267
668.14;	0.3270
668.39;	0.3272
668.65;	0.3275
668.90;	0.3277
669.15;	0.3279
669.41;	0.3281
669.66;	0.3283
669.91;	0.3285
670.17;	0.3287
670.42;	0.3289
670.67;	0.3291
670.93;	0.3293
671.18;	0.3295
671.43;	0.3297
671.69;	0.3299
671.94;	0.3300
672.19;	0.3302
672.45;	0.3304
672.70;	0.3305
672.95;	0.3307
673.21;	0.3308
673.46;	0.3310
673.71;	0.3311
673.97;	0.3312
674.22;	0.3314
674.47;	0.3315
674.73;	0.3316
674.98;	0.3317
675.23;	0.3318
675.49;	0.3319
675.74;	0.3320
675.99;	0.3321
676.25;	0.3322
676.50;	0.3323
676.75;	0.3324
677.01;	0.3325
677.26;	0.3325
677.51;	0.3326
677.77;	0.3327
678.02;	0.3327
678.27;	0.3328
678.53;	0.3328
678.78;	0.3329
679.03;	0.3329
679.29;	0.3330
679.54;	0.3330
679.80;	0.3330
680.05;	0.3330
680.30;	0.3330
680.56;	0.3331
680.81;	0.3331
681.06;	0.3331
681.32;	0.3331
681.57;	0.3331
681.82;	0.3330
682.08;	0.3330
682.33;	0.3330
682.58;	0.3330
682.84;	0.3329
683.09;	0.3329
683.34;	0.3329
683.60;	0.3328
683.85;	0.3328
684.10;	0.3327
684.36;	0.3326
684.61;	0.3326
684.86;	0.3325
685.12;	0.3324
685.37;	0.3324
685.62;	0.3323
685.88;	0.3322
686.13;	0.3321
686.38;	0.3320
686.64;	0.3319
686.89;	0.3318
687.14;	0.3317
687.40;	0.3316
687.65;	0.3314
687.90;	0.3313
688.16;	0.3312
688.41;	0.3310
688.66;	0.3309
688.92;	0.3307
689.17;	0.3306
689.42;	0.3304
689.68;	0.3303
689.93;	0.3301
690.18;	0.3300
690.44;	0.3298
690.69;	0.3296
690.94;	0.3294
691.20;	0.3292
691.45;	0.3290
691.70;	0.3288
691.96;	0.3286
692.21;	0.3284
692.46;	0.3282
692.72;	0.3280
692.97;	0.3278
693.23;	0.3276
693.48;	0.3273
693.73;	0.3271
693.99;	0.3269
694.24;	0.3266
694.49;	0.3264
694.75;	0.3261
695.00;	0.3259
695.25;	0.3256
695.51;	0.3254
695.76;	0.3251
696.01;	0.3248
696.27;	0.3245
696.52;	0.3243
696.77;	0.3240
697.03;	0.3237
697.28;	0.3234
697.53;	0.3231
697.79;	0.3228
698.04;	0.3225
698.29;	0.3222
698.55;	0.3218
698.80;	0.3215
699.05;	0.3212
699.31;	0.3209
699.56;	0.3205
699.81;	0.3202
700.07;	0.3198
700.32;	0.3195
700.57;	0.3192
700.83;	0.3188
701.08;	0.3184
701.33;	0.3181
701.59;	0.3177
701.84;	0.3173
702.09;	0.3170
702.35;	0.3166
702.60;	0.3162
702.85;	0.3158
703.11;	0.3154
703.36;	0.3150
703.61;	0.3146
703.87;	0.3142
704.12;	0.3138
704.37;	0.3134
704.63;	0.3130
704.88;	0.3126
705.13;	0.3121
705.39;	0.3117
705.64;	0.3113
705.89;	0.3109
706.15;	0.3104
706.40;	0.3100
706.66;	0.3095
706.91;	0.3091
707.16;	0.3086
707.42;	0.3082
707.67;	0.3077
707.92;	0.3072
708.18;	0.3068
708.43;	0.3063
708.68;	0.3058
708.94;	0.3053
709.19;	0.3049
709.44;	0.3044
709.70;	0.3039
709.95;	0.3034
710.20;	0.3029
710.46;	0.3024
710.71;	0.3019
710.96;	0.3014
711.22;	0.3009
711.47;	0.3003
711.72;	0.2998
711.98;	0.2993
712.23;	0.2988
712.48;	0.2983
712.74;	0.2977
712.99;	0.2972
713.24;	0.2966
713.50;	0.2961
713.75;	0.2956
714.00;	0.2950
714.26;	0.2945
714.51;	0.2939
714.76;	0.2934
715.02;	0.2928
715.27;	0.2922
715.52;	0.2917
715.78;	0.2911
716.03;	0.2905
716.28;	0.2899
716.54;	0.2894
716.79;	0.2888
717.04;	0.2882
717.30;	0.2876
717.55;	0.2870
717.80;	0.2864
718.06;	0.2858
718.31;	0.2852
718.56;	0.2846
718.82;	0.2840
719.07;	0.2834
719.32;	0.2828
719.58;	0.2822
719.83;	0.2816
720.09;	0.2810
720.34;	0.2803
720.59;	0.2797
720.85;	0.2791
721.10;	0.2785
721.35;	0.2778
721.61;	0.2772
721.86;	0.2766
722.11;	0.2759
722.37;	0.2753
722.62;	0.2746
722.87;	0.2740
723.13;	0.2733
723.38;	0.2727
723.63;	0.2720
723.89;	0.2714
724.14;	0.2707
724.39;	0.2701
724.65;	0.2694
724.90;	0.2687
725.15;	0.2681
725.41;	0.2674
725.66;	0.2667
725.91;	0.2660
726.17;	0.2654
726.42;	0.2647
726.67;	0.2640
726.93;	0.2633
727.18;	0.2626
727.43;	0.2620
727.69;	0.2613
727.94;	0.2606
728.19;	0.2599
728.45;	0.2592
728.70;	0.2585
728.95;	0.2578
729.21;	0.2571
729.46;	0.2564
729.71;	0.2557
729.97;	0.2550
730.22;	0.2543
730.47;	0.2536
730.73;	0.2529
730.98;	0.2522
731.23;	0.2515
731.49;	0.2507
731.74;	0.2500
731.99;	0.2493
732.25;	0.2486
732.50;	0.2479
732.75;	0.2472
733.01;	0.2464
733.26;	0.2457
733.52;	0.2450
733.77;	0.2443
734.02;	0.2435
734.28;	0.2428
734.53;	0.2421
734.78;	0.2413
735.04;	0.2406
735.29;	0.2399
735.54;	0.2391
735.80;	0.2384
736.05;	0.2377
736.30;	0.2369
736.56;	0.2362
736.81;	0.2354
737.06;	0.2347
737.32;	0.2339
737.57;	0.2332
737.82;	0.2325
738.08;	0.2317
738.33;	0.2310
738.58;	0.2302
738.84;	0.2295
739.09;	0.2287
739.34;	0.2280
739.60;	0.2272
739.85;	0.2265
740.10;	0.2257
740.36;	0.2250
740.61;	0.2242
740.86;	0.2234
741.12;	0.2227
741.37;	0.2219
741.62;	0.2212
741.88;	0.2204
742.13;	0.2197
742.38;	0.2189
742.64;	0.2181
742.89;	0.2174
743.14;	0.2166
743.40;	0.2159
743.65;	0.2151
743.90;	0.2143
744.16;	0.2136
744.41;	0.2128
744.66;	0.2121
744.92;	0.2113
745.17;	0.2105
745.42;	0.2098
745.68;	0.2090
745.93;	0.2083
746.18;	0.2075
746.44;	0.2067
746.69;	0.2060
746.95;	0.2052
747.20;	0.2044
747.45;	0.2037
747.71;	0.2029
747.96;	0.2021
748.21;	0.2014
748.47;	0.2006
748.72;	0.1998
748.97;	0.1991
749.23;	0.1983
749.48;	0.1976
749.73;	0.1968
749.99;	0.1960
750.24;	0.1953
750.49;	0.1945
750.75;	0.1937
751.00;	0.1930
751.25;	0.1922
751.51;	0.1915
751.76;	0.1907
752.01;	0.1899
752.27;	0.1892
752.52;	0.1884
752.77;	0.1876
753.03;	0.1869
753.28;	0.1861
753.53;	0.1854
753.79;	0.1846
754.04;	0.1839
754.29;	0.1831
754.55;	0.1823
754.80;	0.1816
755.05;	0.1808
755.31;	0.1801
755.56;	0.1793
755.81;	0.1786
756.07;	0.1778
756.32;	0.1771
756.57;	0.1763
756.83;	0.1755
757.08;	0.1748
757.33;	0.1740
757.59;	0.1733
757.84;	0.1725
758.09;	0.1718
758.35;	0.1711
758.60;	0.1703
758.85;	0.1696
759.11;	0.1688
759.36;	0.1681
759.61;	0.1673
759.87;	0.1666
760.12;	0.1658
760.38;	0.1651
760.63;	0.1644
760.88;	0.1636
761.14;	0.1629
761.39;	0.1622
761.64;	0.1614
761.90;	0.1607
762.15;	0.1600
762.40;	0.1592
762.66;	0.1585
762.91;	0.1578
763.16;	0.1570
763.42;	0.1563
763.67;	0.1556
763.92;	0.1548
764.18;	0.1541
764.43;	0.1534
764.68;	0.1527
764.94;	0.1520
765.19;	0.1512
765.44;	0.1505
765.70;	0.1498
765.95;	0.1491
766.20;	0.1484
766.46;	0.1477
766.71;	0.1470
766.96;	0.1462
767.22;	0.1455
767.47;	0.1448
767.72;	0.1441
767.98;	0.1434
768.23;	0.1427
768.48;	0.1420
768.74;	0.1413
768.99;	0.1406
769.24;	0.1399
769.50;	0.1392
769.75;	0.1385
770.00;	0.1378
770.26;	0.1371
770.51;	0.1364
770.76;	0.1358
771.02;	0.1351
771.27;	0.1344
771.52;	0.1337
771.78;	0.1330
772.03;	0.1323
772.28;	0.1317
772.54;	0.1310
772.79;	0.1303
773.04;	0.1296
773.30;	0.1290
773.55;	0.1283
773.81;	0.1276
774.06;	0.1269
774.31;	0.1263
774.57;	0.1256
774.82;	0.1250
775.07;	0.1243
775.33;	0.1236
775.58;	0.1230
775.83;	0.1223
776.09;	0.1217
776.34;	0.1210
776.59;	0.1204
776.85;	0.1197
777.10;	0.1191
777.35;	0.1184
777.61;	0.1178
777.86;	0.1171
778.11;	0.1165
778.37;	0.1159
778.62;	0.1152
778.87;	0.1146
779.13;	0.1140
779.38;	0.1133
779.63;	0.1127
779.89;	0.1121
780.14;	0.1115
780.39;	0.1108
780.65;	0.1102
780.90;	0.1096
781.15;	0.1090
781.41;	0.1084
781.66;	0.1077
781.91;	0.1071
782.17;	0.1065
782.42;	0.1059
782.67;	0.1053
782.93;	0.1047
783.18;	0.1041
783.43;	0.1035
783.69;	0.1029
783.94;	0.1023
784.19;	0.1017
784.45;	0.1011
784.70;	0.1005
784.95;	0.1000
785.21;	0.0994
785.46;	0.0988
785.71;	0.0982
785.97;	0.0976
786.22;	0.0970
786.47;	0.0965
786.73;	0.0959
786.98;	0.0953
787.24;	0.0948
787.49;	0.0942
787.74;	0.0936
788.00;	0.0931
788.25;	0.0925
788.50;	0.0919
788.76;	0.0914
789.01;	0.0908
789.26;	0.0903
789.52;	0.0897
789.77;	0.0892
790.02;	0.0886
790.28;	0.0881
790.53;	0.0875
790.78;	0.0870
791.04;	0.0865
791.29;	0.0859
791.54;	0.0854
791.80;	0.0849
792.05;	0.0843
792.30;	0.0838
792.56;	0.0833
792.81;	0.0828
793.06;	0.0822
793.32;	0.0817
793.57;	0.0812
793.82;	0.0807
794.08;	0.0802
794.33;	0.0797
794.58;	0.0792
794.84;	0.0786
795.09;	0.0781
795.34;	0.0776
795.60;	0.0771
795.85;	0.0766
796.10;	0.0761
796.36;	0.0757
796.61;	0.0752
796.86;	0.0747
797.12;	0.0742
797.37;	0.0737
797.62;	0.0732
797.88;	0.0727
798.13;	0.0723
798.38;	0.0718
798.64;	0.0713
798.89;	0.0708
799.14;	0.0704
799.40;	0.0699
799.65;	0.0694
799.90;	0.0690
800.16;	0.0685
800.41;	0.0680
800.67;	0.0676
800.92;	0.0671
801.17;	0.0667
801.43;	0.0662
801.68;	0.0658
801.93;	0.0653
802.19;	0.0649
802.44;	0.0644
802.69;	0.0640
802.95;	0.0636
803.20;	0.0631
803.45;	0.0627
803.71;	0.0623
803.96;	0.0618
804.21;	0.0614
804.47;	0.0610
804.72;	0.0605
804.97;	0.0601
805.23;	0.0597
805.48;	0.0593
805.73;	0.0589
805.99;	0.0585
806.24;	0.0580
806.49;	0.0576
806.75;	0.0572
807.00;	0.0568
