wavelength, nm;	absorption
389.00;	1.0760
389.44;	1.0934
389.88;	1.1109
390.31;	1.1285
390.75;	1.1462
391.19;	1.1641
391.63;	1.1821
392.07;	1.2002
392.50;	1.2185
392.94;	1.2368
393.38;	1.2552
393.82;	1.2738
394.25;	1.2925
394.69;	1.3112
395.13;	1.3301
395.57;	1.3490
396.01;	1.3681
396.44;	1.3872
396.88;	1.4064
397.32;	1.4257
397.76;	1.4450
398.20;	1.4645
398.63;	1.4839
399.07;	1.5035
399.51;	1.5231
399.95;	1.5427
400.38;	1.5624
400.82;	1.5822
401.26;	1.6019
401.70;	1.6218
402.14;	1.6416
402.57;	1.6614
403.01;	1.6813
403.45;	1.7012
403.89;	1.7211
404.33;	1.7410
404.76;	1.7609
405.20;	1.7807
405.64;	1.8006
406.08;	1.8204
406.51;	1.8403
406.95;	1.8601
407.39;	1.8798
407.83;	1.8995
408.27;	1.9192
408.70;	1.9388
409.14;	1.9583
409.58;	1.9778
410.02;	1.9972
410.46;	2.0165
410.89;	2.0358
411.33;	2.0550
411.77;	2.0740
412.21;	2.0930
412.64;	2.1118
413.08;	2.1306
413.52;	2.1492
413.96;	2.1677
414.40;	2.1861
414.83;	2.2043
415.27;	2.2224
415.71;	2.2403
416.15;	2.2581
416.59;	2.2757
417.02;	2.2932
417.46;	2.3105
417.90;	2.3276
418.34;	2.3445
418.78;	2.3612
419.21;	2.3778
419.65;	2.3941
420.09;	2.4102
420.53;	2.4261
420.96;	2.4418
421.40;	2.4573
421.84;	2.4725
422.28;	2.4875
422.72;	2.5023
423.15;	2.5168
423.59;	2.5311
424.03;	2.5451
424.47;	2.5588
424.91;	2.5723
425.34;	2.5855
425.78;	2.5984
426.22;	2.6110
426.66;	2.6234
427.09;	2.6355
427.53;	2.6472
427.97;	2.6587
428.41;	2.6699
428.85;	2.6807
429.28;	2.6913
429.72;	2.7015
430.16;	2.7114
430.60;	2.7210
431.04;	2.7302
431.47;	2.7392
431.91;	2.7477
432.35;	2.7560
432.79;	2.7639
433.22;	2.7714
433.66;	2.7786
434.10;	2.7855
434.54;	2.7920
434.98;	2.7982
435.41;	2.8040
435.85;	2.8094
436.29;	2.8144
436.73;	2.8192
437.17;	2.8235
437.60;	2.8275
438.04;	2.8311
438.48;	2.8343
438.92;	2.8371
439.36;	2.8396
439.79;	2.8417
440.23;	2.8434
440.67;	2.8448
441.11;	2.8458
441.54;	2.8464
441.98;	2.8466
442.42;	2.8464
442.86;	2.8459
443.30;	2.8450
443.73;	2.8437
444.17;	2.8420
444.61;	2.8400
445.05;	2.8376
445.49;	2.8348
445.92;	2.8316
446.36;	2.8281
446.80;	2.8242
447.24;	2.8199
447.67;	2.8153
448.11;	2.8103
448.55;	2.8049
448.99;	2.7992
449.43;	2.7931
449.86;	2.7867
450.30;	2.7799
450.74;	2.7727
451.18;	2.7652
451.62;	2.7574
452.05;	2.7492
452.49;	2.7407
452.93;	2.7318
453.37;	2.7226
453.80;	2.7131
454.24;	2.7033
454.68;	2.6931
455.12;	2.6826
455.56;	2.6719
455.99;	2.6608
456.43;	2.6494
456.87;	2.6376
457.31;	2.6256
457.75;	2.6134
458.18;	2.6008
458.62;	2.5879
459.06;	2.5748
459.50;	2.5614
459.93;	2.5477
460.37;	2.5338
460.81;	2.5196
461.25;	2.5051
461.69;	2.4904
462.12;	2.4755
462.56;	2.4603
463.00;	2.4449
463.44;	2.4293
463.88;	2.4135
464.31;	2.3974
464.75;	2.3811
465.19;	2.3647
465.63;	2.3480
466.07;	2.3312
466.50;	2.3141
466.94;	2.2969
467.38;	2.2795
467.82;	2.2620
468.25;	2.2443
468.69;	2.2264
469.13;	2.2084
469.57;	2.1902
470.01;	2.1719
470.44;	2.1535
470.88;	2.1350
471.32;	2.1163
471.76;	2.0975
472.20;	2.0786
472.63;	2.0596
473.07;	2.0406
473.51;	2.0214
473.95;	2.0021
474.38;	1.9828
474.82;	1.9634
475.26;	1.9439
475.70;	1.9244
476.14;	1.9048
476.57;	1.8852
477.01;	1.8655
477.45;	1.8458
477.89;	1.8261
478.33;	1.8064
478.76;	1.7866
479.20;	1.7668
479.64;	1.7470
480.08;	1.7272
480.51;	1.7074
480.95;	1.6876
481.39;	1.6678
481.83;	1.6481
482.27;	1.6283
482.70;	1.6086
483.14;	1.5889
483.58;	1.5693
484.02;	1.5497
484.46;	1.5302
484.89;	1.5107
485.33;	1.4912
485.77;	1.4719
486.21;	1.4526
486.64;	1.4333
487.08;	1.4141
487.52;	1.3951
487.96;	1.3760
488.40;	1.3571
488.83;	1.3383
489.27;	1.3196
489.71;	1.3009
490.15;	1.2824
490.59;	1.2639
491.02;	1.2456
491.46;	1.2274
491.90;	1.2093
492.34;	1.1913
492.78;	1.1735
493.21;	1.1557
493.65;	1.1381
494.09;	1.1206
494.53;	1.1033
494.96;	1.0861
495.40;	1.0690
495.84;	1.0521
496.28;	1.0353
496.72;	1.0186
497.15;	1.0021
497.59;	0.9857
498.03;	0.9695
498.47;	0.9535
498.91;	0.9376
499.34;	0.9218
499.78;	0.9063
500.22;	0.8908
500.66;	0.8756
501.09;	0.8605
501.53;	0.8455
501.97;	0.8307
502.41;	0.8161
502.85;	0.8017
503.28;	0.7874
503.72;	0.7733
504.16;	0.7594
504.60;	0.7456
505.04;	0.7320
505.47;	0.7185
505.91;	0.7053
506.35;	0.6922
506.79;	0.6793
507.22;	0.6665
507.66;	0.6540
508.10;	0.6415
508.54;	0.6293
508.98;	0.6173
509.41;	0.6054
509.85;	0.5937
510.29;	0.5821
510.73;	0.5707
511.17;	0.5595
511.60;	0.5485
512.04;	0.5377
512.48;	0.5270
512.92;	0.5164
513.36;	0.5061
513.79;	0.4959
514.23;	0.4859
514.67;	0.4760
515.11;	0.4663
515.54;	0.4568
515.98;	0.4475
516.42;	0.4383
516.86;	0.4292
517.30;	0.4204
517.73;	0.4116
518.17;	0.4031
518.61;	0.3947
519.05;	0.3865
519.49;	0.3784
519.92;	0.3704
520.36;	0.3627
520.80;	0.3550
521.24;	0.3476
521.67;	0.3402
522.11;	0.3330
522.55;	0.3260
522.99;	0.3191
523.43;	0.3124
523.86;	0.3058
524.30;	0.2993
524.74;	0.2930
525.18;	0.2868
525.62;	0.2807
526.05;	0.2748
526.49;	0.2690
526.93;	0.2633
527.37;	0.2578
527.80;	0.2524
528.24;	0.2471
528.68;	0.2420
529.12;	0.2370
529.56;	0.2321
529.99;	0.2273
530.43;	0.2226
530.87;	0.2181
531.31;	0.2136
531.75;	0.2093
532.18;	0.2051
532.62;	0.2010
533.06;	0.1970
533.50;	0.1931
533.93;	0.1894
534.37;	0.1857
534.81;	0.1821
535.25;	0.1787
535.69;	0.1753
536.12;	0.1720
536.56;	0.1689
537.00;	0.1658
537.44;	0.1628
537.88;	0.1599
538.31;	0.1571
538.75;	0.1544
539.19;	0.1518
539.63;	0.1492
540.07;	0.1468
540.50;	0.1444
540.94;	0.1421
541.38;	0.1399
541.82;	0.1378
542.25;	0.1357
542.69;	0.1338
543.13;	0.1319
543.57;	0.1300
544.01;	0.1283
544.44;	0.1266
544.88;	0.1250
545.32;	0.1234
545.76;	0.1219
546.20;	0.1205
546.63;	0.1192
547.07;	0.1179
547.51;	0.1167
547.95;	0.1155
548.38;	0.1144
548.82;	0.1134
549.26;	0.1124
549.70;	0.1114
550.14;	0.1106
550.57;	0.1097
551.01;	0.1090
551.45;	0.1082
551.89;	0.1076
552.33;	0.1070
552.76;	0.1064
553.20;	0.1059
553.64;	0.1054
554.08;	0.1050
554.51;	0.1046
554.95;	0.1043
555.39;	0.1040
555.83;	0.1037
556.27;	0.1035
556.70;	0.1033
557.14;	0.1032
557.58;	0.1031
558.02;	0.1031
558.46;	0.1030
558.89;	0.1031
559.33;	0.1031
559.77;	0.1032
560.21;	0.1033
560.64;	0.1035
561.08;	0.1037
561.52;	0.1039
561.96;	0.1042
562.40;	0.1045
562.83;	0.1048
563.27;	0.1051
563.71;	0.1055
564.15;	0.1059
564.59;	0.1064
565.02;	0.1068
565.46;	0.1073
565.90;	0.1078
566.34;	0.1084
566.78;	0.1089
567.21;	0.1095
567.65;	0.1101
568.09;	0.1108
568.53;	0.1114
568.96;	0.1121
569.40;	0.1128
569.84;	0.1136
570.28;	0.1143
570.72;	0.1151
571.15;	0.1159
571.59;	0.1167
572.03;	0.1175
572.47;	0.1184
572.91;	0.1192
573.34;	0.1201
573.78;	0.1210
574.22;	0.1219
574.66;	0.1229
575.09;	0.1238
575.53;	0.1248
575.97;	0.1258
576.41;	0.1268
576.85;	0.1278
577.28;	0.1289
577.72;	0.1299
578.16;	0.1310
578.60;	0.1321
579.04;	0.1332
579.47;	0.1343
579.91;	0.1354
580.35;	0.1366
580.79;	0.1377
581.22;	0.1389
581.66;	0.1401
582.10;	0.1412
582.54;	0.1424
582.98;	0.1437
583.41;	0.1449
583.85;	0.1461
584.29;	0.1474
584.73;	0.1486
585.17;	0.1499
585.60;	0.1512
586.04;	0.1525
586.48;	0.1538
586.92;	0.1551
587.36;	0.1564
587.79;	0.1578
588.23;	0.1591
588.67;	0.1604
589.11;	0.1618
589.54;	0.1632
589.98;	0.1646
590.42;	0.1659
590.86;	0.1673
591.30;	0.1687
591.73;	0.1702
592.17;	0.1716
592.61;	0.1730
593.05;	0.1744
593.49;	0.1759
593.92;	0.1773
594.36;	0.1788
594.80;	0.1803
595.24;	0.1817
595.67;	0.1832
596.11;	0.1847
596.55;	0.1862
596.99;	0.1877
597.43;	0.1892
597.86;	0.1907
598.30;	0.1922
598.74;	0.1937
599.18;	0.1952
599.62;	0.1968
600.05;	0.1983
600.49;	0.1999
600.93;	0.2014
601.37;	0.2029
601.80;	0.2045
602.24;	0.2061
602.68;	0.2076
603.12;	0.2092
603.56;	0.2108
603.99;	0.2123
604.43;	0.2139
604.87;	0.2155
605.31;	0.2171
605.75;	0.2187
606.18;	0.2203
606.62;	0.2219
607.06;	0.2235
607.50;	0.2251
607.93;	0.2267
608.37;	0.2283
608.81;	0.2299
609.25;	0.2315
609.69;	0.2331
610.12;	0.2347
610.56;	0.2363
611.00;	0.2379
611.44;	0.2395
611.88;	0.2412
612.31;	0.2428
612.75;	0.2444
613.19;	0.2460
613.63;	0.2476
614.07;	0.2493
614.50;	0.2509
614.94;	0.2525
615.38;	0.2541
615.82;	0.2558
616.25;	0.2574
616.69;	0.2590
617.13;	0.2606
617.57;	0.2622
618.01;	0.2638
618.44;	0.2655
618.88;	0.2671
619.32;	0.2687
619.76;	0.2703
620.20;	0.2719
620.63;	0.2735
621.07;	0.2751
621.51;	0.2767
621.95;	0.2783
622.38;	0.2799
622.82;	0.2815
623.26;	0.2831
623.70;	0.2847
624.14;	0.2863
624.57;	0.2879
625.01;	0.2895
625.45;	0.2911
625.89;	0.2926
626.33;	0.2942
626.76;	0.2958
627.20;	0.2973
627.64;	0.2989
628.08;	0.3004
628.51;	0.3020
628.95;	0.3035
629.39;	0.3051
629.83;	0.3066
630.27;	0.3081
630.70;	0.3096
631.14;	0.3112
631.58;	0.3127
632.02;	0.3142
632.46;	0.3157
632.89;	0.3172
633.33;	0.3186
633.77;	0.3201
634.21;	0.3216
634.64;	0.3231
635.08;	0.3245
635.52;	0.3260
635.96;	0.3274
636.40;	0.3288
636.83;	0.3303
637.27;	0.3317
637.71;	0.3331
638.15;	0.3345
638.59;	0.3359
639.02;	0.3373
639.46;	0.3386
639.90;	0.3400
640.34;	0.3414
640.78;	0.3427
641.21;	0.3441
641.65;	0.3454
642.09;	0.3467
642.53;	0.3480
642.96;	0.3493
643.40;	0.3506
643.84;	0.3519
644.28;	0.3532
644.72;	0.3544
645.15;	0.3557
645.59;	0.3569
646.03;	0.3581
646.47;	0.3594
646.91;	0.3606
647.34;	0.3618
647.78;	0.3629
648.22;	0.3641
648.66;	0.3653
649.09;	0.3664
649.53;	0.3675
649.97;	0.3687
650.41;	0.3698
650.85;	0.3709
651.28;	0.3720
651.72;	0.3730
652.16;	0.3741
652.60;	0.3751
653.04;	0.3762
653.47;	0.3772
653.91;	0.3782
654.35;	0.3792
654.79;	0.3802
655.22;	0.3811
655.66;	0.3821
656.10;	0.3830
656.54;	0.3839
656.98;	0.3849
657.41;	0.3857
657.85;	0.3866
658.29;	0.3875
658.73;	0.3883
659.17;	0.3892
659.60;	0.3900
660.04;	0.3908
660.48;	0.3916
660.92;	0.3924
661.36;	0.3931
661.79;	0.3939
662.23;	0.3946
662.67;	0.3953
663.11;	0.3960
663.54;	0.3967
663.98;	0.3974
664.42;	0.3980
664.86;	0.3987
665.30;	0.3993
665.73;	0.3999
666.17;	0.4005
666.61;	0.4010
667.05;	0.4016
667.49;	0.4021
667.92;	0.4027
668.36;	0.4032
668.80;	0.4037
669.24;	0.4041
669.67;	0.4046
670.11;	0.4050
670.55;	0.4054
670.99;	0.4058
671.43;	0.4062
671.86;	0.4066
672.30;	0.4070
672.74;	0.4073
673.18;	0.4076
673.62;	0.4079
674.05;	0.4082
674.49;	0.4085
674.93;	0.4087
675.37;	0.4090
675.80;	0.4092
676.24;	0.4094
676.68;	0.4096
677.12;	0.4097
677.56;	0.4099
677.99;	0.4100
678.43;	0.4101
678.87;	0.4102
679.31;	0.4103
679.75;	0.4103
680.18;	0.4104
680.62;	0.4104
681.06;	0.4104
681.50;	0.4104
681.93;	0.4104
682.37;	0.4103
682.81;	0.4103
683.25;	0.4102
683.69;	0.4101
684.12;	0.4100
684.56;	0.4098
685.00;	0.4097
685.44;	0.4095
685.88;	0.4093
686.31;	0.4091
686.75;	0.4089
687.19;	0.4087
687.63;	0.4084
688.07;	0.4081
688.50;	0.4078
688.94;	0.4075
689.38;	0.4072
689.82;	0.4069
690.25;	0.4065
690.69;	0.4061
691.13;	0.4057
691.57;	0.4053
692.01;	0.4049
692.44;	0.4045
692.88;	0.4040
693.32;	0.4035
693.76;	0.4030
694.20;	0.4025
694.63;	0.4020
695.07;	0.4015
695.51;	0.4009
695.95;	0.4003
696.38;	0.3997
696.82;	0.3991
697.26;	0.3985
697.70;	0.3979
698.14;	0.3972
698.57;	0.3965
699.01;	0.3958
699.45;	0.3951
699.89;	0.3944
700.33;	0.3937
700.76;	0.3929
701.20;	0.3922
701.64;	0.3914
702.08;	0.3906
702.51;	0.3898
702.95;	0.3890
703.39;	0.3881
703.83;	0.3873
704.27;	0.3864
704.70;	0.3855
705.14;	0.3846
705.58;	0.3837
706.02;	0.3828
706.46;	0.3818
706.89;	0.3809
707.33;	0.3799
707.77;	0.3789
708.21;	0.3779
708.64;	0.3769
709.08;	0.3759
709.52;	0.3749
709.96;	0.3738
710.40;	0.3727
710.83;	0.3717
711.27;	0.3706
711.71;	0.3695
712.15;	0.3684
712.59;	0.3672
713.02;	0.3661
713.46;	0.3650
713.90;	0.3638
714.34;	0.3626
714.78;	0.3614
715.21;	0.3602
715.65;	0.3590
716.09;	0.3578
716.53;	0.3566
716.96;	0.3553
717.40;	0.3541
717.84;	0.3528
718.28;	0.3516
718.72;	0.3503
719.15;	0.3490
719.59;	0.3477
720.03;	0.3464
720.47;	0.3450
720.91;	0.3437
721.34;	0.3424
721.78;	0.3410
722.22;	0.3396
722.66;	0.3383
723.09;	0.3369
723.53;	0.3355
723.97;	0.3341
724.41;	0.3327
724.85;	0.3313
725.28;	0.3299
725.72;	0.3284
726.16;	0.3270
726.60;	0.3256
727.04;	0.3241
727.47;	0.3227
727.91;	0.3212
728.35;	0.3197
728.79;	0.3182
729.22;	0.3167
729.66;	0.3153
730.10;	0.3138
730.54;	0.3122
730.98;	0.3107
731.41;	0.3092
731.85;	0.3077
732.29;	0.3062
732.73;	0.3046
733.17;	0.3031
733.60;	0.3015
734.04;	0.3000
734.48;	0.2984
734.92;	0.2969
735.36;	0.2953
735.79;	0.2938
736.23;	0.2922
736.67;	0.2906
737.11;	0.2890
737.54;	0.2874
737.98;	0.2859
738.42;	0.2843
738.86;	0.2827
739.30;	0.2811
739.73;	0.2795
740.17;	0.2779
740.61;	0.2763
741.05;	0.2747
741.49;	0.2730
741.92;	0.2714
742.36;	0.2698
742.80;	0.2682
743.24;	0.2666
743.67;	0.2650
744.11;	0.2633
744.55;	0.2617
744.99;	0.2601
745.43;	0.2585
745.86;	0.2569
746.30;	0.2552
746.74;	0.2536
747.18;	0.2520
747.62;	0.2504
748.05;	0.2487
748.49;	0.2471
748.93;	0.2455
749.37;	0.2438
749.80;	0.2422
750.24;	0.2406
750.68;	0.2390
751.12;	0.2373
751.56;	0.2357
751.99;	0.2341
752.43;	0.2325
752.87;	0.2309
753.31;	0.2292
753.75;	0.2276
754.18;	0.2260
754.62;	0.2244
755.06;	0.2228
755.50;	0.2212
755.93;	0.2196
756.37;	0.2180
756.81;	0.2164
757.25;	0.2148
757.69;	0.2132
758.12;	0.2116
758.56;	0.2100
759.00;	0.2084
759.44;	0.2068
759.88;	0.2052
760.31;	0.2037
760.75;	0.2021
761.19;	0.2005
761.63;	0.1990
762.07;	0.1974
762.50;	0.1958
762.94;	0.1943
763.38;	0.1927
763.82;	0.1912
764.25;	0.1896
764.69;	0.1881
765.13;	0.1866
765.57;	0.1850
766.01;	0.1835
766.44;	0.1820
766.88;	0.1805
767.32;	0.1790
767.76;	0.1775
768.20;	0.1760
768.63;	0.1745
769.07;	0.1730
769.51;	0.1715
769.95;	0.1700
770.38;	0.1685
770.82;	0.1671
771.26;	0.1656
771.70;	0.1642
772.14;	0.1627
772.57;	0.1613
773.01;	0.1598
773.45;	0.1584
773.89;	0.1570
774.33;	0.1556
774.76;	0.1541
775.20;	0.1527
775.64;	0.1513
776.08;	0.1499
776.51;	0.1486
776.95;	0.1472
777.39;	0.1458
777.83;	0.1444
778.27;	0.1431
778.70;	0.1417
779.14;	0.1404
779.58;	0.1390
780.02;	0.1377
780.46;	0.1364
780.89;	0.1351
781.33;	0.1337
781.77;	0.1324
782.21;	0.1311
782.64;	0.1298
783.08;	0.1286
783.52;	0.1273
783.96;	0.1260
784.40;	0.1248
784.83;	0.1235
785.27;	0.1223
785.71;	0.1210
786.15;	0.1198
786.59;	0.1186
787.02;	0.1173
787.46;	0.1161
787.90;	0.1149
788.34;	0.1137
788.78;	0.1125
789.21;	0.1114
789.65;	0.1102
790.09;	0.1090
790.53;	0.1079
790.96;	0.1067
791.40;	0.1056
791.84;	0.1045
792.28;	0.1033
792.72;	0.1022
793.15;	0.1011
793.59;	0.1000
794.03;	0.0989
794.47;	0.0978
794.91;	0.0967
795.34;	0.0957
795.78;	0.0946
796.22;	0.0935
796.66;	0.0925
797.09;	0.0915
797.53;	0.0904
797.97;	0.0894
798.41;	0.0884
798.85;	0.0874
799.28;	0.0864
799.72;	0.0854
800.16;	0.0844
800.60;	0.0834
801.04;	0.0825
801.47;	0.0815
801.91;	0.0805
802.35;	0.0796
802.79;	0.0787
803.22;	0.0777
803.66;	0.0768
804.10;	0.0759
804.54;	0.0750
804.98;	0.0741
805.41;	0.0732
805.85;	0.0723
806.29;	0.0714
806.73;	0.0706
807.17;	0.0697
807.60;	0.0688
808.04;	0.0680
808.48;	0.0672
808.92;	0.0663
809.36;	0.0655
809.79;	0.0647
810.23;	0.0639
810.67;	0.0631
811.11;	0.0623
811.54;	0.0615
811.98;	0.0607
812.42;	0.0599
812.86;	0.0592
813.30;	0.0584
813.73;	0.0577
814.17;	0.0569
814.61;	0.0562
815.05;	0.0555
815.49;	0.0547
815.92;	0.0540
816.36;	0.0533
816.80;	0.0526
817.24;	0.0519
817.67;	0.0512
818.11;	0.0506
818.55;	0.0499
818.99;	0.0492
819.43;	0.0486
819.86;	0.0479
820.30;	0.0473
820.74;	0.0466
821.18;	0.0460
821.62;	0.0454
822.05;	0.0447
822.49;	0.0441
822.93;	0.0435
823.37;	0.0429
823.80;	0.0423
824.24;	0.0418
824.68;	0.0412
825.12;	0.0406
825.56;	0.0400
825.99;	0.0395
826.43;	0.0389
826.87;	0.0384
827.31;	0.0378
827.75;	0.0373
828.18;	0.0368
828.62;	0.0362
829.06;	0.0357
829.50;	0.0352
829.93;	0.0347
830.37;	0.0342
830.81;	0.0337
831.25;	0.0332
831.69;	0.0327
832.12;	0.0322
832.56;	0.0318
833.00;	0.0313
